Date:	18-Sep-20		Time:	1:09 AM		Version no:	0.00		Project name:	55		Sample name:	222		Section name:	section		Position	0.000000	mm	E0	0.000000	keV	E1	1.000000	keV/channel	sample surface	2.000000	cm	Tube anode:	Mo		Tube voltage:	30	kV	Tube current:	30	mA	gain	15		std. database			resultfile	result		matrix element	11		sample thickness	1.000000		air passage	0.560000	cm	comments	not in position		peaking_time	0.300000	m-sec	trigger_threshold	40.000000	V	mca_bin_width	2.000000	no:	number_mca_channels	2048.000000	no:	gap_time	2048.000000	m-sec	trigger_peaking_time	2048.000000	m-sec	GAINDAC	400		HIGHGAIN	400		TAURC	400		RCTAU	400		RCTAUFRAC	400		livetime	13.363346	seconds	runtime	15.000103	seconds	input_count_rate	47301.998987	cps	output_count_rate	42140.575897	cps	triggers	697379	seconds	events_in_run	615755	seconds	channel	content		1.000	0.000
2.000	0.000
3.000	0.000
4.000	0.000
5.000	0.000
6.000	0.000
7.000	0.000
8.000	0.000
9.000	0.000
10.000	0.000
11.000	0.000
12.000	0.000
13.000	0.000
14.000	0.000
15.000	0.000
16.000	0.000
17.000	0.000
18.000	0.000
19.000	0.000
20.000	0.000
21.000	0.000
22.000	0.000
23.000	0.000
24.000	0.000
25.000	0.000
26.000	0.000
27.000	0.000
28.000	0.000
29.000	0.000
30.000	0.000
31.000	30.000
32.000	33.000
33.000	27.000
34.000	40.000
35.000	36.000
36.000	40.000
37.000	34.000
38.000	39.000
39.000	27.000
40.000	37.000
41.000	46.000
42.000	36.000
43.000	37.000
44.000	50.000
45.000	26.000
46.000	60.000
47.000	49.000
48.000	56.000
49.000	103.000
50.000	140.000
51.000	244.000
52.000	302.000
53.000	402.000
54.000	561.000
55.000	745.000
56.000	982.000
57.000	1356.000
58.000	1902.000
59.000	2785.000
60.000	3535.000
61.000	4148.000
62.000	4475.000
63.000	4762.000
64.000	4563.000
65.000	4485.000
66.000	4318.000
67.000	4252.000
68.000	3940.000
69.000	3951.000
70.000	3935.000
71.000	3915.000
72.000	3783.000
73.000	3828.000
74.000	3839.000
75.000	3782.000
76.000	3769.000
77.000	3696.000
78.000	3781.000
79.000	3705.000
80.000	3642.000
81.000	3745.000
82.000	3770.000
83.000	3890.000
84.000	3758.000
85.000	3649.000
86.000	3773.000
87.000	3684.000
88.000	3616.000
89.000	3492.000
90.000	3367.000
91.000	3367.000
92.000	3243.000
93.000	3307.000
94.000	3270.000
95.000	3265.000
96.000	3216.000
97.000	3239.000
98.000	3164.000
99.000	3059.000
100.000	3132.000
101.000	3113.000
102.000	3054.000
103.000	2941.000
104.000	3040.000
105.000	2933.000
106.000	2880.000
107.000	2902.000
108.000	2826.000
109.000	2898.000
110.000	2789.000
111.000	2755.000
112.000	2650.000
113.000	2730.000
114.000	2641.000
115.000	2587.000
116.000	2622.000
117.000	2639.000
118.000	2573.000
119.000	2499.000
120.000	2584.000
121.000	2446.000
122.000	2510.000
123.000	2449.000
124.000	2369.000
125.000	2385.000
126.000	2333.000
127.000	2242.000
128.000	2200.000
129.000	2198.000
130.000	2183.000
131.000	2182.000
132.000	2199.000
133.000	2156.000
134.000	2165.000
135.000	2187.000
136.000	2134.000
137.000	2216.000
138.000	2433.000
139.000	2508.000
140.000	2827.000
141.000	3044.000
142.000	3652.000
143.000	4057.000
144.000	4575.000
145.000	4835.000
146.000	4832.000
147.000	4809.000
148.000	4670.000
149.000	4395.000
150.000	4274.000
151.000	3961.000
152.000	4035.000
153.000	3937.000
154.000	3861.000
155.000	3719.000
156.000	3370.000
157.000	3150.000
158.000	2858.000
159.000	2603.000
160.000	2445.000
161.000	2658.000
162.000	3041.000
163.000	4135.000
164.000	5606.000
165.000	7899.000
166.000	10722.000
167.000	14125.000
168.000	17709.000
169.000	20425.000
170.000	22390.000
171.000	22695.000
172.000	21628.000
173.000	18897.000
174.000	15784.000
175.000	12740.000
176.000	9552.000
177.000	7354.000
178.000	5826.000
179.000	4720.000
180.000	4114.000
181.000	3803.000
182.000	3689.000
183.000	3789.000
184.000	4023.000
185.000	4610.000
186.000	5265.000
187.000	6187.000
188.000	7231.000
189.000	8080.000
190.000	8747.000
191.000	9070.000
192.000	8825.000
193.000	7986.000
194.000	6987.000
195.000	5861.000
196.000	4901.000
197.000	3930.000
198.000	3167.000
199.000	2663.000
200.000	2259.000
201.000	1964.000
202.000	1849.000
203.000	1748.000
204.000	1703.000
205.000	1670.000
206.000	1659.000
207.000	1633.000
208.000	1620.000
209.000	1628.000
210.000	1619.000
211.000	1761.000
212.000	1704.000
213.000	1685.000
214.000	1718.000
215.000	1728.000
216.000	1835.000
217.000	1859.000
218.000	2036.000
219.000	2167.000
220.000	2376.000
221.000	2525.000
222.000	2625.000
223.000	2749.000
224.000	2675.000
225.000	2584.000
226.000	2399.000
227.000	2315.000
228.000	2145.000
229.000	1956.000
230.000	1798.000
231.000	1664.000
232.000	1552.000
233.000	1508.000
234.000	1423.000
235.000	1447.000
236.000	1363.000
237.000	1318.000
238.000	1373.000
239.000	1324.000
240.000	1360.000
241.000	1336.000
242.000	1332.000
243.000	1387.000
244.000	1405.000
245.000	1529.000
246.000	1706.000
247.000	1963.000
248.000	2311.000
249.000	2938.000
250.000	3932.000
251.000	5171.000
252.000	6555.000
253.000	8122.000
254.000	9661.000
255.000	11117.000
256.000	12079.000
257.000	12501.000
258.000	12234.000
259.000	11407.000
260.000	10040.000
261.000	8472.000
262.000	6803.000
263.000	5289.000
264.000	4205.000
265.000	3531.000
266.000	3048.000
267.000	2732.000
268.000	2642.000
269.000	2677.000
270.000	2839.000
271.000	2957.000
272.000	2893.000
273.000	3061.000
274.000	3095.000
275.000	3197.000
276.000	2979.000
277.000	2874.000
278.000	2825.000
279.000	2799.000
280.000	2863.000
281.000	3069.000
282.000	3301.000
283.000	3960.000
284.000	4909.000
285.000	5736.000
286.000	6956.000
287.000	8004.000
288.000	8700.000
289.000	9339.000
290.000	9470.000
291.000	9346.000
292.000	8353.000
293.000	7509.000
294.000	6347.000
295.000	5305.000
296.000	4170.000
297.000	3417.000
298.000	2632.000
299.000	2290.000
300.000	1952.000
301.000	1808.000
302.000	1695.000
303.000	1822.000
304.000	1689.000
305.000	1836.000
306.000	2150.000
307.000	2289.000
308.000	2522.000
309.000	3049.000
310.000	3610.000
311.000	4373.000
312.000	5748.000
313.000	7927.000
314.000	11414.000
315.000	16521.000
316.000	23393.000
317.000	33634.000
318.000	46420.000
319.000	62133.000
320.000	79633.000
321.000	97427.000
322.000	113166.000
323.000	125162.000
324.000	133309.000
325.000	133457.000
326.000	127932.000
327.000	115959.000
328.000	99748.000
329.000	81783.000
330.000	64053.000
331.000	47984.000
332.000	34546.000
333.000	23938.000
334.000	15873.000
335.000	10234.000
336.000	6915.000
337.000	5000.000
338.000	3809.000
339.000	3707.000
340.000	3784.000
341.000	4531.000
342.000	5562.000
343.000	7245.000
344.000	9335.000
345.000	12040.000
346.000	16001.000
347.000	21470.000
348.000	28845.000
349.000	39487.000
350.000	53676.000
351.000	75245.000
352.000	104610.000
353.000	144610.000
354.000	196556.000
355.000	261159.000
356.000	333539.000
357.000	413668.000
358.000	491073.000
359.000	557993.000
360.000	606734.000
361.000	630353.000
362.000	626119.000
363.000	592895.000
364.000	536089.000
365.000	460005.000
366.000	380474.000
367.000	299294.000
368.000	224873.000
369.000	161868.000
370.000	111107.000
371.000	73295.000
372.000	47351.000
373.000	28880.000
374.000	18132.000
375.000	11707.000
376.000	8126.000
377.000	6427.000
378.000	5939.000
379.000	6368.000
380.000	7475.000
381.000	9455.000
382.000	12189.000
383.000	16377.000
384.000	21822.000
385.000	28806.000
386.000	37600.000
387.000	47949.000
388.000	58827.000
389.000	70201.000
390.000	79464.000
391.000	87370.000
392.000	92799.000
393.000	93440.000
394.000	90693.000
395.000	84666.000
396.000	75571.000
397.000	65024.000
398.000	52919.000
399.000	42030.000
400.000	31885.000
401.000	23587.000
402.000	16620.000
403.000	11596.000
404.000	7795.000
405.000	5349.000
406.000	3834.000
407.000	2784.000
408.000	2149.000
409.000	1780.000
410.000	1491.000
411.000	1452.000
412.000	1408.000
413.000	1308.000
414.000	1274.000
415.000	1385.000
416.000	1385.000
417.000	1363.000
418.000	1392.000
419.000	1498.000
420.000	1497.000
421.000	1557.000
422.000	1689.000
423.000	1885.000
424.000	2124.000
425.000	2516.000
426.000	3332.000
427.000	4443.000
428.000	6217.000
429.000	8806.000
430.000	12873.000
431.000	18219.000
432.000	25929.000
433.000	34931.000
434.000	46944.000
435.000	59768.000
436.000	73518.000
437.000	87892.000
438.000	100993.000
439.000	111330.000
440.000	119067.000
441.000	121210.000
442.000	119617.000
443.000	112924.000
444.000	103424.000
445.000	90148.000
446.000	76885.000
447.000	62440.000
448.000	50166.000
449.000	39572.000
450.000	30256.000
451.000	23663.000
452.000	19020.000
453.000	15623.000
454.000	13581.000
455.000	11980.000
456.000	10950.000
457.000	9869.000
458.000	9133.000
459.000	7924.000
460.000	7309.000
461.000	6359.000
462.000	5638.000
463.000	5268.000
464.000	4764.000
465.000	4556.000
466.000	4630.000
467.000	4954.000
468.000	5211.000
469.000	6013.000
470.000	6738.000
471.000	7565.000
472.000	8673.000
473.000	9757.000
474.000	11378.000
475.000	12860.000
476.000	14827.000
477.000	16890.000
478.000	19114.000
479.000	20688.000
480.000	22489.000
481.000	23546.000
482.000	23997.000
483.000	23757.000
484.000	23113.000
485.000	21511.000
486.000	19712.000
487.000	17373.000
488.000	15154.000
489.000	12709.000
490.000	10569.000
491.000	8945.000
492.000	7348.000
493.000	6180.000
494.000	5321.000
495.000	4695.000
496.000	4445.000
497.000	4063.000
498.000	3898.000
499.000	3909.000
500.000	3780.000
501.000	3824.000
502.000	3990.000
503.000	4233.000
504.000	4239.000
505.000	4423.000
506.000	4598.000
507.000	4747.000
508.000	4920.000
509.000	5191.000
510.000	5485.000
511.000	5478.000
512.000	5820.000
513.000	5898.000
514.000	6190.000
515.000	6254.000
516.000	6558.000
517.000	6604.000
518.000	6716.000
519.000	6987.000
520.000	7198.000
521.000	7649.000
522.000	7763.000
523.000	8263.000
524.000	8829.000
525.000	9033.000
526.000	9453.000
527.000	10043.000
528.000	9885.000
529.000	10171.000
530.000	9978.000
531.000	9660.000
532.000	9163.000
533.000	8661.000
534.000	8155.000
535.000	7681.000
536.000	6937.000
537.000	6617.000
538.000	6113.000
539.000	5749.000
540.000	5432.000
541.000	5280.000
542.000	5112.000
543.000	5047.000
544.000	5099.000
545.000	4896.000
546.000	5027.000
547.000	4947.000
548.000	5091.000
549.000	5038.000
550.000	5044.000
551.000	5018.000
552.000	5119.000
553.000	5097.000
554.000	5111.000
555.000	5125.000
556.000	5474.000
557.000	5477.000
558.000	5786.000
559.000	5948.000
560.000	6350.000
561.000	7010.000
562.000	8066.000
563.000	9170.000
564.000	11095.000
565.000	13184.000
566.000	16357.000
567.000	20207.000
568.000	24738.000
569.000	29997.000
570.000	36070.000
571.000	41962.000
572.000	48004.000
573.000	53308.000
574.000	57447.000
575.000	60197.000
576.000	61364.000
577.000	60454.000
578.000	58871.000
579.000	55017.000
580.000	50260.000
581.000	44521.000
582.000	38394.000
583.000	32512.000
584.000	27258.000
585.000	22474.000
586.000	17950.000
587.000	14981.000
588.000	12654.000
589.000	10845.000
590.000	9778.000
591.000	8925.000
592.000	8424.000
593.000	8159.000
594.000	7994.000
595.000	8073.000
596.000	8162.000
597.000	8479.000
598.000	8746.000
599.000	9183.000
600.000	9672.000
601.000	10189.000
602.000	10852.000
603.000	12139.000
604.000	13636.000
605.000	16248.000
606.000	20016.000
607.000	26311.000
608.000	35435.000
609.000	49597.000
610.000	70821.000
611.000	101023.000
612.000	144350.000
613.000	203459.000
614.000	281997.000
615.000	383009.000
616.000	508850.000
617.000	655559.000
618.000	824345.000
619.000	1007508.000
620.000	1197011.000
621.000	1379267.000
622.000	1545262.000
623.000	1679243.000
624.000	1769786.000
625.000	1813155.000
626.000	1805461.000
627.000	1738858.000
628.000	1628431.000
629.000	1480225.000
630.000	1307744.000
631.000	1120537.000
632.000	932233.000
633.000	754604.000
634.000	593836.000
635.000	454838.000
636.000	337981.000
637.000	247600.000
638.000	176282.000
639.000	123758.000
640.000	86402.000
641.000	59668.000
642.000	42164.000
643.000	30492.000
644.000	23144.000
645.000	18191.000
646.000	15454.000
647.000	13710.000
648.000	12498.000
649.000	11962.000
650.000	11458.000
651.000	11182.000
652.000	11267.000
653.000	11194.000
654.000	11164.000
655.000	11252.000
656.000	11489.000
657.000	11472.000
658.000	11686.000
659.000	11953.000
660.000	11906.000
661.000	12145.000
662.000	12591.000
663.000	12872.000
664.000	13486.000
665.000	13649.000
666.000	14269.000
667.000	14768.000
668.000	15966.000
669.000	17104.000
670.000	18452.000
671.000	20517.000
672.000	22978.000
673.000	26818.000
674.000	31597.000
675.000	38022.000
676.000	46516.000
677.000	57375.000
678.000	71641.000
679.000	88391.000
680.000	109003.000
681.000	132262.000
682.000	158735.000
683.000	185825.000
684.000	213473.000
685.000	239757.000
686.000	261948.000
687.000	279682.000
688.000	291596.000
689.000	295715.000
690.000	293241.000
691.000	282383.000
692.000	267023.000
693.000	244308.000
694.000	217258.000
695.000	190389.000
696.000	160641.000
697.000	134703.000
698.000	109596.000
699.000	86962.000
700.000	68645.000
701.000	53167.000
702.000	41195.000
703.000	31667.000
704.000	24741.000
705.000	19966.000
706.000	16301.000
707.000	13809.000
708.000	12107.000
709.000	11153.000
710.000	10537.000
711.000	10295.000
712.000	10245.000
713.000	10016.000
714.000	10091.000
715.000	10163.000
716.000	10713.000
717.000	10633.000
718.000	11033.000
719.000	11356.000
720.000	11765.000
721.000	11882.000
722.000	12555.000
723.000	13032.000
724.000	13469.000
725.000	13544.000
726.000	13928.000
727.000	14398.000
728.000	14472.000
729.000	14522.000
730.000	14492.000
731.000	14314.000
732.000	14261.000
733.000	13906.000
734.000	13619.000
735.000	13367.000
736.000	12983.000
737.000	12481.000
738.000	12295.000
739.000	12128.000
740.000	11791.000
741.000	11454.000
742.000	11366.000
743.000	11117.000
744.000	11025.000
745.000	11297.000
746.000	11127.000
747.000	11179.000
748.000	11111.000
749.000	11284.000
750.000	11285.000
751.000	11377.000
752.000	11566.000
753.000	11521.000
754.000	11531.000
755.000	11413.000
756.000	11731.000
757.000	11841.000
758.000	12074.000
759.000	12204.000
760.000	12150.000
761.000	12098.000
762.000	12313.000
763.000	12597.000
764.000	12509.000
765.000	12896.000
766.000	12806.000
767.000	13290.000
768.000	13338.000
769.000	13501.000
770.000	13775.000
771.000	13839.000
772.000	14224.000
773.000	14453.000
774.000	14905.000
775.000	15113.000
776.000	15544.000
777.000	15886.000
778.000	16387.000
779.000	16999.000
780.000	17789.000
781.000	18130.000
782.000	18923.000
783.000	19430.000
784.000	19841.000
785.000	20524.000
786.000	21084.000
787.000	21300.000
788.000	22130.000
789.000	22261.000
790.000	22614.000
791.000	22989.000
792.000	23230.000
793.000	23372.000
794.000	23879.000
795.000	24043.000
796.000	24068.000
797.000	24036.000
798.000	24428.000
799.000	24438.000
800.000	24586.000
801.000	24916.000
802.000	24573.000
803.000	25040.000
804.000	25691.000
805.000	25973.000
806.000	26317.000
807.000	27450.000
808.000	28690.000
809.000	29660.000
810.000	31417.000
811.000	33525.000
812.000	35295.000
813.000	37499.000
814.000	39676.000
815.000	41981.000
816.000	44115.000
817.000	44747.000
818.000	46085.000
819.000	46550.000
820.000	46204.000
821.000	45420.000
822.000	44649.000
823.000	42670.000
824.000	40159.000
825.000	37932.000
826.000	35266.000
827.000	32850.000
828.000	30491.000
829.000	28420.000
830.000	26462.000
831.000	25346.000
832.000	24416.000
833.000	23745.000
834.000	23716.000
835.000	23817.000
836.000	23703.000
837.000	24532.000
838.000	24792.000
839.000	25485.000
840.000	26137.000
841.000	26484.000
842.000	26707.000
843.000	26731.000
844.000	26912.000
845.000	26556.000
846.000	25842.000
847.000	25460.000
848.000	24155.000
849.000	23653.000
850.000	22983.000
851.000	22299.000
852.000	21489.000
853.000	20821.000
854.000	20431.000
855.000	19838.000
856.000	19454.000
857.000	19214.000
858.000	18950.000
859.000	18639.000
860.000	18900.000
861.000	18901.000
862.000	18873.000
863.000	18767.000
864.000	18938.000
865.000	18707.000
866.000	18816.000
867.000	19199.000
868.000	18966.000
869.000	19125.000
870.000	19342.000
871.000	19282.000
872.000	19297.000
873.000	19313.000
874.000	19300.000
875.000	19538.000
876.000	19824.000
877.000	19715.000
878.000	19957.000
879.000	20045.000
880.000	20028.000
881.000	20142.000
882.000	20249.000
883.000	20358.000
884.000	20413.000
885.000	20702.000
886.000	20904.000
887.000	21121.000
888.000	21161.000
889.000	21542.000
890.000	21845.000
891.000	21965.000
892.000	22457.000
893.000	22911.000
894.000	23315.000
895.000	23826.000
896.000	23970.000
897.000	24842.000
898.000	25087.000
899.000	25552.000
900.000	26276.000
901.000	26654.000
902.000	26975.000
903.000	27359.000
904.000	27460.000
905.000	27900.000
906.000	28160.000
907.000	28136.000
908.000	28714.000
909.000	28777.000
910.000	28657.000
911.000	28556.000
912.000	28749.000
913.000	28976.000
914.000	29036.000
915.000	29113.000
916.000	29421.000
917.000	28964.000
918.000	29234.000
919.000	29353.000
920.000	29825.000
921.000	30027.000
922.000	30427.000
923.000	30312.000
924.000	30257.000
925.000	30667.000
926.000	31241.000
927.000	31759.000
928.000	32107.000
929.000	32705.000
930.000	32876.000
931.000	33760.000
932.000	34777.000
933.000	34989.000
934.000	35767.000
935.000	36943.000
936.000	37657.000
937.000	38443.000
938.000	39826.000
939.000	40848.000
940.000	41644.000
941.000	42017.000
942.000	42545.000
943.000	42285.000
944.000	42778.000
945.000	42087.000
946.000	41398.000
947.000	40555.000
948.000	39948.000
949.000	38561.000
950.000	36943.000
951.000	36054.000
952.000	34498.000
953.000	33836.000
954.000	32417.000
955.000	31383.000
956.000	30310.000
957.000	29972.000
958.000	29287.000
959.000	29112.000
960.000	28871.000
961.000	28802.000
962.000	28588.000
963.000	28478.000
964.000	28757.000
965.000	29043.000
966.000	28828.000
967.000	29168.000
968.000	29485.000
969.000	29755.000
970.000	30310.000
971.000	29991.000
972.000	29800.000
973.000	29547.000
974.000	29721.000
975.000	29210.000
976.000	28988.000
977.000	28453.000
978.000	27746.000
979.000	27156.000
980.000	26555.000
981.000	26117.000
982.000	25751.000
983.000	25232.000
984.000	24674.000
985.000	24653.000
986.000	24003.000
987.000	23805.000
988.000	23797.000
989.000	23690.000
990.000	23533.000
991.000	22906.000
992.000	23065.000
993.000	22959.000
994.000	22925.000
995.000	22846.000
996.000	22468.000
997.000	22483.000
998.000	22714.000
999.000	22862.000
1000.000	22572.000
1001.000	22546.000
1002.000	22554.000
1003.000	22283.000
1004.000	22273.000
1005.000	22411.000
1006.000	22315.000
1007.000	22285.000
1008.000	22408.000
1009.000	22361.000
1010.000	22242.000
1011.000	22381.000
1012.000	22401.000
1013.000	22308.000
1014.000	22415.000
1015.000	22241.000
1016.000	22389.000
1017.000	22869.000
1018.000	22650.000
1019.000	22839.000
1020.000	22833.000
1021.000	22730.000
1022.000	23100.000
1023.000	23303.000
1024.000	23279.000
1025.000	23432.000
1026.000	23527.000
1027.000	23614.000
1028.000	23626.000
1029.000	23673.000
1030.000	23709.000
1031.000	23620.000
1032.000	23743.000
1033.000	23826.000
1034.000	23867.000
1035.000	23906.000
1036.000	23900.000
1037.000	23757.000
1038.000	23896.000
1039.000	23756.000
1040.000	23935.000
1041.000	24002.000
1042.000	24108.000
1043.000	24170.000
1044.000	24083.000
1045.000	24209.000
1046.000	24560.000
1047.000	24625.000
1048.000	24524.000
1049.000	24649.000
1050.000	24703.000
1051.000	24834.000
1052.000	25065.000
1053.000	25163.000
1054.000	25197.000
1055.000	25183.000
1056.000	25479.000
1057.000	25471.000
1058.000	25672.000
1059.000	25359.000
1060.000	25761.000
1061.000	25943.000
1062.000	25548.000
1063.000	25951.000
1064.000	25991.000
1065.000	26128.000
1066.000	26159.000
1067.000	25916.000
1068.000	25990.000
1069.000	25756.000
1070.000	25949.000
1071.000	25845.000
1072.000	25890.000
1073.000	25944.000
1074.000	25843.000
1075.000	25838.000
1076.000	25771.000
1077.000	25638.000
1078.000	25666.000
1079.000	25360.000
1080.000	25799.000
1081.000	25632.000
1082.000	26168.000
1083.000	25586.000
1084.000	25895.000
1085.000	25867.000
1086.000	25902.000
1087.000	26123.000
1088.000	25858.000
1089.000	26144.000
1090.000	26322.000
1091.000	26761.000
1092.000	26792.000
1093.000	27161.000
1094.000	27252.000
1095.000	27513.000
1096.000	27571.000
1097.000	27721.000
1098.000	27737.000
1099.000	28331.000
1100.000	28314.000
1101.000	28394.000
1102.000	28232.000
1103.000	28078.000
1104.000	27689.000
1105.000	27989.000
1106.000	27677.000
1107.000	27688.000
1108.000	27350.000
1109.000	27316.000
1110.000	26893.000
1111.000	26708.000
1112.000	26430.000
1113.000	26230.000
1114.000	26098.000
1115.000	26142.000
1116.000	25744.000
1117.000	26196.000
1118.000	25864.000
1119.000	25920.000
1120.000	26006.000
1121.000	26039.000
1122.000	25675.000
1123.000	25863.000
1124.000	25959.000
1125.000	26005.000
1126.000	26199.000
1127.000	25948.000
1128.000	26083.000
1129.000	26350.000
1130.000	26205.000
1131.000	26157.000
1132.000	26403.000
1133.000	26238.000
1134.000	26201.000
1135.000	26492.000
1136.000	26461.000
1137.000	26317.000
1138.000	26455.000
1139.000	26429.000
1140.000	26453.000
1141.000	26309.000
1142.000	26500.000
1143.000	26619.000
1144.000	26589.000
1145.000	26539.000
1146.000	26313.000
1147.000	26767.000
1148.000	26912.000
1149.000	26909.000
1150.000	26915.000
1151.000	27426.000
1152.000	27175.000
1153.000	27552.000
1154.000	28252.000
1155.000	28409.000
1156.000	28740.000
1157.000	29167.000
1158.000	28987.000
1159.000	29540.000
1160.000	29613.000
1161.000	29358.000
1162.000	29317.000
1163.000	29445.000
1164.000	29441.000
1165.000	29281.000
1166.000	29240.000
1167.000	29150.000
1168.000	28756.000
1169.000	28514.000
1170.000	28388.000
1171.000	27992.000
1172.000	27635.000
1173.000	27249.000
1174.000	27537.000
1175.000	27010.000
1176.000	27076.000
1177.000	26388.000
1178.000	26380.000
1179.000	26370.000
1180.000	26208.000
1181.000	26009.000
1182.000	26205.000
1183.000	26188.000
1184.000	26196.000
1185.000	25928.000
1186.000	26048.000
1187.000	25972.000
1188.000	26150.000
1189.000	26084.000
1190.000	25951.000
1191.000	26083.000
1192.000	26073.000
1193.000	26021.000
1194.000	25983.000
1195.000	25994.000
1196.000	25967.000
1197.000	26145.000
1198.000	26259.000
1199.000	26074.000
1200.000	26533.000
1201.000	26103.000
1202.000	26489.000
1203.000	26185.000
1204.000	26468.000
1205.000	26372.000
1206.000	26557.000
1207.000	26472.000
1208.000	26659.000
1209.000	26555.000
1210.000	26183.000
1211.000	26957.000
1212.000	26677.000
1213.000	26870.000
1214.000	26658.000
1215.000	26878.000
1216.000	26585.000
1217.000	26888.000
1218.000	27321.000
1219.000	26830.000
1220.000	26924.000
1221.000	27051.000
1222.000	27226.000
1223.000	27101.000
1224.000	27278.000
1225.000	27413.000
1226.000	27039.000
1227.000	27330.000
1228.000	27507.000
1229.000	27354.000
1230.000	27471.000
1231.000	27887.000
1232.000	27695.000
1233.000	27738.000
1234.000	27761.000
1235.000	27762.000
1236.000	28109.000
1237.000	28075.000
1238.000	27985.000
1239.000	27825.000
1240.000	28009.000
1241.000	28120.000
1242.000	27803.000
1243.000	27847.000
1244.000	28375.000
1245.000	28268.000
1246.000	28295.000
1247.000	28516.000
1248.000	28300.000
1249.000	28220.000
1250.000	28515.000
1251.000	28646.000
1252.000	28441.000
1253.000	28425.000
1254.000	28949.000
1255.000	28557.000
1256.000	28514.000
1257.000	28598.000
1258.000	28942.000
1259.000	28582.000
1260.000	28346.000
1261.000	28135.000
1262.000	28749.000
1263.000	28183.000
1264.000	28772.000
1265.000	28365.000
1266.000	28472.000
1267.000	28640.000
1268.000	28284.000
1269.000	28364.000
1270.000	28389.000
1271.000	28135.000
1272.000	28456.000
1273.000	28278.000
1274.000	28306.000
1275.000	28508.000
1276.000	28336.000
1277.000	28135.000
1278.000	28330.000
1279.000	28068.000
1280.000	28326.000
1281.000	28608.000
1282.000	28657.000
1283.000	28397.000
1284.000	29015.000
1285.000	29064.000
1286.000	29202.000
1287.000	29450.000
1288.000	29897.000
1289.000	30361.000
1290.000	30830.000
1291.000	31473.000
1292.000	31699.000
1293.000	32748.000
1294.000	33209.000
1295.000	33855.000
1296.000	34560.000
1297.000	34963.000
1298.000	35956.000
1299.000	36448.000
1300.000	37027.000
1301.000	37490.000
1302.000	38098.000
1303.000	38337.000
1304.000	38256.000
1305.000	38693.000
1306.000	38113.000
1307.000	37604.000
1308.000	37590.000
1309.000	37378.000
1310.000	36783.000
1311.000	36166.000
1312.000	35527.000
1313.000	34747.000
1314.000	34205.000
1315.000	33589.000
1316.000	32839.000
1317.000	32236.000
1318.000	31729.000
1319.000	31141.000
1320.000	30662.000
1321.000	30352.000
1322.000	30200.000
1323.000	30016.000
1324.000	29468.000
1325.000	29631.000
1326.000	29134.000
1327.000	29057.000
1328.000	29268.000
1329.000	29052.000
1330.000	28925.000
1331.000	28987.000
1332.000	29120.000
1333.000	28978.000
1334.000	29107.000
1335.000	28607.000
1336.000	29084.000
1337.000	28965.000
1338.000	28943.000
1339.000	29144.000
1340.000	28431.000
1341.000	28787.000
1342.000	28676.000
1343.000	28961.000
1344.000	28716.000
1345.000	28765.000
1346.000	28690.000
1347.000	29035.000
1348.000	29294.000
1349.000	28915.000
1350.000	29158.000
1351.000	29366.000
1352.000	29528.000
1353.000	29809.000
1354.000	30023.000
1355.000	30284.000
1356.000	30678.000
1357.000	31338.000
1358.000	31604.000
1359.000	32713.000
1360.000	33791.000
1361.000	35229.000
1362.000	36496.000
1363.000	38190.000
1364.000	40826.000
1365.000	43016.000
1366.000	45653.000
1367.000	48544.000
1368.000	51879.000
1369.000	55113.000
1370.000	58277.000
1371.000	61864.000
1372.000	65886.000
1373.000	69477.000
1374.000	72469.000
1375.000	76282.000
1376.000	78901.000
1377.000	80476.000
1378.000	82473.000
1379.000	83718.000
1380.000	83164.000
1381.000	82651.000
1382.000	81673.000
1383.000	79428.000
1384.000	77221.000
1385.000	74235.000
1386.000	71051.000
1387.000	66936.000
1388.000	63457.000
1389.000	59252.000
1390.000	55413.000
1391.000	52178.000
1392.000	48646.000
1393.000	45512.000
1394.000	42742.000
1395.000	40143.000
1396.000	38047.000
1397.000	36106.000
1398.000	34389.000
1399.000	33044.000
1400.000	32328.000
1401.000	31163.000
1402.000	30620.000
1403.000	29862.000
1404.000	29477.000
1405.000	29229.000
1406.000	29076.000
1407.000	28990.000
1408.000	29143.000
1409.000	28577.000
1410.000	28389.000
1411.000	28368.000
1412.000	28508.000
1413.000	28148.000
1414.000	28777.000
1415.000	28607.000
1416.000	28415.000
1417.000	28240.000
1418.000	28170.000
1419.000	28427.000
1420.000	28653.000
1421.000	28142.000
1422.000	28614.000
1423.000	28578.000
1424.000	28616.000
1425.000	28503.000
1426.000	28645.000
1427.000	28564.000
1428.000	28465.000
1429.000	28751.000
1430.000	28763.000
1431.000	28772.000
1432.000	28921.000
1433.000	28864.000
1434.000	28700.000
1435.000	28907.000
1436.000	28855.000
1437.000	28980.000
1438.000	28979.000
1439.000	29280.000
1440.000	29633.000
1441.000	29861.000
1442.000	29639.000
1443.000	30141.000
1444.000	30208.000
1445.000	30641.000
1446.000	30960.000
1447.000	31080.000
1448.000	31256.000
1449.000	31904.000
1450.000	32097.000
1451.000	32190.000
1452.000	33062.000
1453.000	32607.000
1454.000	33235.000
1455.000	32914.000
1456.000	33637.000
1457.000	33975.000
1458.000	33325.000
1459.000	33533.000
1460.000	33302.000
1461.000	33445.000
1462.000	32899.000
1463.000	32760.000
1464.000	32647.000
1465.000	32386.000
1466.000	32531.000
1467.000	31528.000
1468.000	31763.000
1469.000	31336.000
1470.000	30955.000
1471.000	30592.000
1472.000	30530.000
1473.000	30096.000
1474.000	30123.000
1475.000	30330.000
1476.000	30036.000
1477.000	30180.000
1478.000	30068.000
1479.000	30006.000
1480.000	29805.000
1481.000	29928.000
1482.000	30086.000
1483.000	29828.000
1484.000	29837.000
1485.000	29716.000
1486.000	29982.000
1487.000	29525.000
1488.000	29753.000
1489.000	30047.000
1490.000	29739.000
1491.000	30105.000
1492.000	30097.000
1493.000	30067.000
1494.000	29900.000
1495.000	29994.000
1496.000	30015.000
1497.000	30031.000
1498.000	30298.000
1499.000	30424.000
1500.000	30236.000
1501.000	30446.000
1502.000	30475.000
1503.000	30457.000
1504.000	30666.000
1505.000	30852.000
1506.000	30971.000
1507.000	31241.000
1508.000	31338.000
1509.000	31461.000
1510.000	32216.000
1511.000	31849.000
1512.000	32974.000
1513.000	33192.000
1514.000	33643.000
1515.000	34453.000
1516.000	34832.000
1517.000	36100.000
1518.000	37148.000
1519.000	38575.000
1520.000	39662.000
1521.000	41215.000
1522.000	42787.000
1523.000	44534.000
1524.000	46337.000
1525.000	48169.000
1526.000	50407.000
1527.000	53311.000
1528.000	55092.000
1529.000	56877.000
1530.000	59292.000
1531.000	61483.000
1532.000	62976.000
1533.000	64758.000
1534.000	66889.000
1535.000	67744.000
1536.000	68324.000
1537.000	68898.000
1538.000	69418.000
1539.000	69876.000
1540.000	69328.000
1541.000	68747.000
1542.000	67243.000
1543.000	65615.000
1544.000	64638.000
1545.000	62749.000
1546.000	61004.000
1547.000	59105.000
1548.000	57089.000
1549.000	55658.000
1550.000	53573.000
1551.000	52021.000
1552.000	50398.000
1553.000	49135.000
1554.000	47701.000
1555.000	47179.000
1556.000	46047.000
1557.000	45313.000
1558.000	44883.000
1559.000	45220.000
1560.000	44718.000
1561.000	45091.000
1562.000	44887.000
1563.000	45622.000
1564.000	46462.000
1565.000	47040.000
1566.000	47183.000
1567.000	48603.000
1568.000	48836.000
1569.000	49846.000
1570.000	51024.000
1571.000	51916.000
1572.000	53037.000
1573.000	54549.000
1574.000	55572.000
1575.000	56874.000
1576.000	58102.000
1577.000	59893.000
1578.000	61298.000
1579.000	63464.000
1580.000	64899.000
1581.000	66643.000
1582.000	67957.000
1583.000	69669.000
1584.000	71586.000
1585.000	73429.000
1586.000	76022.000
1587.000	78005.000
1588.000	79711.000
1589.000	82247.000
1590.000	84171.000
1591.000	85986.000
1592.000	87686.000
1593.000	89998.000
1594.000	92084.000
1595.000	93710.000
1596.000	96072.000
1597.000	97202.000
1598.000	98901.000
1599.000	100611.000
1600.000	101996.000
1601.000	103051.000
1602.000	104826.000
1603.000	105818.000
1604.000	106833.000
1605.000	106799.000
1606.000	108108.000
1607.000	108714.000
1608.000	108175.000
1609.000	109430.000
1610.000	109703.000
1611.000	109036.000
1612.000	108826.000
1613.000	108187.000
1614.000	106914.000
1615.000	106424.000
1616.000	105642.000
1617.000	104610.000
1618.000	103101.000
1619.000	102000.000
1620.000	99365.000
1621.000	98268.000
1622.000	96889.000
1623.000	94516.000
1624.000	92048.000
1625.000	89117.000
1626.000	87599.000
1627.000	84864.000
1628.000	82740.000
1629.000	80350.000
1630.000	78621.000
1631.000	75958.000
1632.000	73561.000
1633.000	71551.000
1634.000	69231.000
1635.000	67304.000
1636.000	65027.000
1637.000	62722.000
1638.000	60989.000
1639.000	59386.000
1640.000	57706.000
1641.000	55886.000
1642.000	54480.000
1643.000	52528.000
1644.000	50986.000
1645.000	49420.000
1646.000	48420.000
1647.000	46889.000
1648.000	45908.000
1649.000	44432.000
1650.000	43877.000
1651.000	42780.000
1652.000	41210.000
1653.000	41120.000
1654.000	39998.000
1655.000	39075.000
1656.000	38419.000
1657.000	37557.000
1658.000	37184.000
1659.000	36650.000
1660.000	35743.000
1661.000	35253.000
1662.000	34612.000
1663.000	33852.000
1664.000	33615.000
1665.000	33443.000
1666.000	33070.000
1667.000	32766.000
1668.000	32425.000
1669.000	31975.000
1670.000	32090.000
1671.000	31936.000
1672.000	31833.000
1673.000	32463.000
1674.000	32311.000
1675.000	32852.000
1676.000	32621.000
1677.000	33621.000
1678.000	34346.000
1679.000	35485.000
1680.000	36562.000
1681.000	37771.000
1682.000	40075.000
1683.000	41705.000
1684.000	44173.000
1685.000	46577.000
1686.000	49269.000
1687.000	51784.000
1688.000	54972.000
1689.000	57896.000
1690.000	60640.000
1691.000	64076.000
1692.000	67165.000
1693.000	70167.000
1694.000	73304.000
1695.000	76048.000
1696.000	79164.000
1697.000	81287.000
1698.000	82919.000
1699.000	84768.000
1700.000	85868.000
1701.000	86118.000
1702.000	86204.000
1703.000	86242.000
1704.000	84850.000
1705.000	83676.000
1706.000	81665.000
1707.000	79193.000
1708.000	76635.000
1709.000	73408.000
1710.000	70223.000
1711.000	66511.000
1712.000	63000.000
1713.000	59478.000
1714.000	56167.000
1715.000	52894.000
1716.000	49748.000
1717.000	46940.000
1718.000	44258.000
1719.000	41896.000
1720.000	39513.000
1721.000	37822.000
1722.000	35995.000
1723.000	34449.000
1724.000	33071.000
1725.000	31954.000
1726.000	31535.000
1727.000	30316.000
1728.000	29306.000
1729.000	28789.000
1730.000	28027.000
1731.000	27743.000
1732.000	26725.000
1733.000	26841.000
1734.000	26452.000
1735.000	26002.000
1736.000	25501.000
1737.000	25719.000
1738.000	25470.000
1739.000	25484.000
1740.000	25341.000
1741.000	25138.000
1742.000	24857.000
1743.000	24802.000
1744.000	25138.000
1745.000	24878.000
1746.000	25289.000
1747.000	25082.000
1748.000	25439.000
1749.000	25359.000
1750.000	25485.000
1751.000	25719.000
1752.000	26028.000
1753.000	25806.000
1754.000	25994.000
1755.000	26097.000
1756.000	26336.000
1757.000	26258.000
1758.000	26465.000
1759.000	26535.000
1760.000	27053.000
1761.000	26957.000
1762.000	27054.000
1763.000	27500.000
1764.000	27682.000
1765.000	27691.000
1766.000	27919.000
1767.000	27749.000
1768.000	28425.000
1769.000	28649.000
1770.000	28847.000
1771.000	29397.000
1772.000	29484.000
1773.000	29991.000
1774.000	30358.000
1775.000	30180.000
1776.000	30386.000
1777.000	30658.000
1778.000	31032.000
1779.000	31502.000
1780.000	31683.000
1781.000	31934.000
1782.000	31712.000
1783.000	32675.000
1784.000	32595.000
1785.000	33138.000
1786.000	33006.000
1787.000	32859.000
1788.000	33272.000
1789.000	33101.000
1790.000	33252.000
1791.000	33120.000
1792.000	33389.000
1793.000	33765.000
1794.000	33182.000
1795.000	33216.000
1796.000	33364.000
1797.000	33253.000
1798.000	33034.000
1799.000	33005.000
1800.000	33266.000
1801.000	32871.000
1802.000	32785.000
1803.000	32314.000
1804.000	32533.000
1805.000	32118.000
1806.000	32053.000
1807.000	31827.000
1808.000	31214.000
1809.000	30977.000
1810.000	31000.000
1811.000	30426.000
1812.000	30297.000
1813.000	29711.000
1814.000	29351.000
1815.000	29445.000
1816.000	28687.000
1817.000	28380.000
1818.000	28024.000
1819.000	27446.000
1820.000	27245.000
1821.000	26442.000
1822.000	25989.000
1823.000	25825.000
1824.000	25086.000
1825.000	24903.000
1826.000	24592.000
1827.000	23953.000
1828.000	23402.000
1829.000	23123.000
1830.000	22742.000
1831.000	22338.000
1832.000	22087.000
1833.000	21473.000
1834.000	21433.000
1835.000	20943.000
1836.000	20701.000
1837.000	20188.000
1838.000	20115.000
1839.000	19711.000
1840.000	19167.000
1841.000	19126.000
1842.000	18947.000
1843.000	18559.000
1844.000	18119.000
1845.000	17910.000
1846.000	18035.000
1847.000	17442.000
1848.000	17376.000
1849.000	17268.000
1850.000	16806.000
1851.000	16763.000
1852.000	16362.000
1853.000	16347.000
1854.000	16007.000
1855.000	15799.000
1856.000	15763.000
1857.000	15415.000
1858.000	15185.000
1859.000	15246.000
1860.000	14957.000
1861.000	14748.000
1862.000	14709.000
1863.000	14597.000
1864.000	14392.000
1865.000	14143.000
1866.000	14276.000
1867.000	13777.000
1868.000	13920.000
1869.000	13662.000
1870.000	13659.000
1871.000	13630.000
1872.000	13481.000
1873.000	13472.000
1874.000	13399.000
1875.000	13293.000
1876.000	12949.000
1877.000	13017.000
1878.000	12840.000
1879.000	12910.000
1880.000	12747.000
1881.000	12479.000
1882.000	12686.000
1883.000	12557.000
1884.000	12657.000
1885.000	12663.000
1886.000	12805.000
1887.000	12658.000
1888.000	12547.000
1889.000	12729.000
1890.000	13074.000
1891.000	13109.000
1892.000	13072.000
1893.000	13390.000
1894.000	13553.000
1895.000	14076.000
1896.000	14229.000
1897.000	14649.000
1898.000	15117.000
1899.000	15558.000
1900.000	15951.000
1901.000	16425.000
1902.000	16818.000
1903.000	17247.000
1904.000	17954.000
1905.000	18361.000
1906.000	18864.000
1907.000	19034.000
1908.000	19357.000
1909.000	19683.000
1910.000	19899.000
1911.000	19767.000
1912.000	19906.000
1913.000	19987.000
1914.000	19508.000
1915.000	19241.000
1916.000	18775.000
1917.000	18127.000
1918.000	17769.000
1919.000	17373.000
1920.000	16671.000
1921.000	16342.000
1922.000	15456.000
1923.000	15166.000
1924.000	14706.000
1925.000	14139.000
1926.000	13577.000
1927.000	13030.000
1928.000	12789.000
1929.000	12402.000
1930.000	12129.000
1931.000	12138.000
1932.000	11943.000
1933.000	11738.000
1934.000	11372.000
1935.000	11483.000
1936.000	11504.000
1937.000	11524.000
1938.000	11439.000
1939.000	11552.000
1940.000	11328.000
1941.000	11170.000
1942.000	11333.000
1943.000	11569.000
1944.000	11364.000
1945.000	11105.000
1946.000	11367.000
1947.000	11183.000
1948.000	11128.000
1949.000	10831.000
1950.000	10709.000
1951.000	10689.000
1952.000	10634.000
1953.000	10605.000
1954.000	10470.000
1955.000	10127.000
1956.000	10124.000
1957.000	9928.000
1958.000	9672.000
1959.000	9530.000
1960.000	9435.000
1961.000	9534.000
1962.000	9282.000
1963.000	9432.000
1964.000	9178.000
1965.000	9201.000
1966.000	9106.000
1967.000	9044.000
1968.000	8836.000
1969.000	8922.000
1970.000	8846.000
1971.000	8900.000
1972.000	8695.000
1973.000	8689.000
1974.000	8794.000
1975.000	8760.000
1976.000	8830.000
1977.000	8706.000
1978.000	8575.000
1979.000	8652.000
1980.000	8431.000
1981.000	8762.000
1982.000	8682.000
1983.000	8634.000
1984.000	8746.000
1985.000	8645.000
1986.000	8783.000
1987.000	8520.000
1988.000	8685.000
1989.000	8733.000
1990.000	8529.000
1991.000	8276.000
1992.000	8593.000
1993.000	8555.000
1994.000	8687.000
1995.000	8740.000
1996.000	8540.000
1997.000	8381.000
1998.000	8560.000
1999.000	8649.000
2000.000	8399.000
2001.000	8527.000
2002.000	8341.000
2003.000	8388.000
2004.000	8389.000
2005.000	8467.000
2006.000	8394.000
2007.000	8424.000
2008.000	8421.000
2009.000	8385.000
2010.000	8400.000
2011.000	8339.000
2012.000	8257.000
2013.000	8232.000
2014.000	8207.000
2015.000	8368.000
2016.000	8350.000
2017.000	8322.000
2018.000	8300.000
2019.000	8285.000
2020.000	8106.000
2021.000	8201.000
2022.000	8330.000
2023.000	8248.000
2024.000	8324.000
2025.000	8042.000
2026.000	8327.000
2027.000	8085.000
2028.000	8114.000
2029.000	8168.000
2030.000	8083.000
2031.000	8138.000
2032.000	8126.000
2033.000	8014.000
2034.000	8147.000
2035.000	8262.000
2036.000	8177.000
2037.000	8015.000
2038.000	7989.000
2039.000	8109.000
2040.000	7963.000
2041.000	7861.000
2042.000	7861.000
2043.000	8003.000
2044.000	8049.000
2045.000	7953.000
2046.000	7869.000
2047.000	7719.000
2048.000	0.000
