Date:	22-Sep-20		Time:	11:44 PM		Version no:	0.00		Project name:	55		Sample name:	222		Section name:	section		Position	0.000000	mm	E0	0.000000	keV	E1	1.000000	keV/channel	sample surface	2.000000	cm	Tube anode:	Mo		Tube voltage:	30	kV	Tube current:	30	mA	gain	15		std. database			resultfile	result		matrix element	11		sample thickness	1.000000		air passage	0.560000	cm	comments	not in position		peaking_time	0.300000	m-sec	trigger_threshold	40.000000	V	mca_bin_width	2.000000	no:	number_mca_channels	2048.000000	no:	gap_time	2048.000000	m-sec	trigger_peaking_time	2048.000000	m-sec	GAINDAC	400		HIGHGAIN	400		TAURC	400		RCTAU	400		RCTAUFRAC	400		livetime	13.460029	seconds	runtime	15.000315	seconds	input_count_rate	48083.921460	cps	output_count_rate	43146.493924	cps	triggers	709732	seconds	events_in_run	631780	seconds	channel	content		1.000	0.000
2.000	0.000
3.000	0.000
4.000	0.000
5.000	0.000
6.000	0.000
7.000	0.000
8.000	0.000
9.000	0.000
10.000	0.000
11.000	0.000
12.000	0.000
13.000	0.000
14.000	0.000
15.000	0.000
16.000	0.000
17.000	0.000
18.000	0.000
19.000	0.000
20.000	0.000
21.000	0.000
22.000	0.000
23.000	0.000
24.000	0.000
25.000	0.000
26.000	0.000
27.000	0.000
28.000	0.000
29.000	0.000
30.000	0.000
31.000	34.000
32.000	37.000
33.000	39.000
34.000	26.000
35.000	33.000
36.000	33.000
37.000	41.000
38.000	33.000
39.000	26.000
40.000	25.000
41.000	26.000
42.000	35.000
43.000	31.000
44.000	36.000
45.000	32.000
46.000	44.000
47.000	48.000
48.000	54.000
49.000	69.000
50.000	124.000
51.000	123.000
52.000	201.000
53.000	269.000
54.000	361.000
55.000	484.000
56.000	624.000
57.000	851.000
58.000	1317.000
59.000	1766.000
60.000	2296.000
61.000	2596.000
62.000	2912.000
63.000	2970.000
64.000	2979.000
65.000	2908.000
66.000	2719.000
67.000	2724.000
68.000	2540.000
69.000	2526.000
70.000	2644.000
71.000	2530.000
72.000	2466.000
73.000	2308.000
74.000	2465.000
75.000	2394.000
76.000	2380.000
77.000	2389.000
78.000	2352.000
79.000	2309.000
80.000	2344.000
81.000	2394.000
82.000	2461.000
83.000	2444.000
84.000	2397.000
85.000	2586.000
86.000	2570.000
87.000	2376.000
88.000	2446.000
89.000	2381.000
90.000	2304.000
91.000	2238.000
92.000	2124.000
93.000	2143.000
94.000	2044.000
95.000	2093.000
96.000	2134.000
97.000	2075.000
98.000	2023.000
99.000	1975.000
100.000	1988.000
101.000	1983.000
102.000	2011.000
103.000	1941.000
104.000	1904.000
105.000	1965.000
106.000	1871.000
107.000	1897.000
108.000	1889.000
109.000	1878.000
110.000	1753.000
111.000	1782.000
112.000	1846.000
113.000	1822.000
114.000	1771.000
115.000	1795.000
116.000	1786.000
117.000	1726.000
118.000	1820.000
119.000	1784.000
120.000	1724.000
121.000	1731.000
122.000	1637.000
123.000	1634.000
124.000	1623.000
125.000	1617.000
126.000	1642.000
127.000	1590.000
128.000	1526.000
129.000	1574.000
130.000	1500.000
131.000	1489.000
132.000	1526.000
133.000	1455.000
134.000	1472.000
135.000	1493.000
136.000	1524.000
137.000	1540.000
138.000	1561.000
139.000	1699.000
140.000	1712.000
141.000	1857.000
142.000	2087.000
143.000	2317.000
144.000	2439.000
145.000	2505.000
146.000	2617.000
147.000	2540.000
148.000	2409.000
149.000	2230.000
150.000	2081.000
151.000	1970.000
152.000	1910.000
153.000	1714.000
154.000	1716.000
155.000	1639.000
156.000	1569.000
157.000	1458.000
158.000	1411.000
159.000	1345.000
160.000	1256.000
161.000	1369.000
162.000	1461.000
163.000	1641.000
164.000	2027.000
165.000	2470.000
166.000	3012.000
167.000	3885.000
168.000	4581.000
169.000	5111.000
170.000	5661.000
171.000	5803.000
172.000	5381.000
173.000	4961.000
174.000	4414.000
175.000	3874.000
176.000	3273.000
177.000	2982.000
178.000	2804.000
179.000	2838.000
180.000	3033.000
181.000	3337.000
182.000	3972.000
183.000	4997.000
184.000	6622.000
185.000	8583.000
186.000	11393.000
187.000	14790.000
188.000	17896.000
189.000	20632.000
190.000	22602.000
191.000	23385.000
192.000	22759.000
193.000	20156.000
194.000	17357.000
195.000	14067.000
196.000	10548.000
197.000	7823.000
198.000	5633.000
199.000	3820.000
200.000	2859.000
201.000	2275.000
202.000	1814.000
203.000	1638.000
204.000	1592.000
205.000	1551.000
206.000	1480.000
207.000	1569.000
208.000	1525.000
209.000	1623.000
210.000	1614.000
211.000	1594.000
212.000	1770.000
213.000	1811.000
214.000	1880.000
215.000	2067.000
216.000	2378.000
217.000	2717.000
218.000	3040.000
219.000	3373.000
220.000	3894.000
221.000	4319.000
222.000	4606.000
223.000	4544.000
224.000	4522.000
225.000	4278.000
226.000	4017.000
227.000	3488.000
228.000	3073.000
229.000	2643.000
230.000	2234.000
231.000	2021.000
232.000	1679.000
233.000	1540.000
234.000	1398.000
235.000	1385.000
236.000	1335.000
237.000	1320.000
238.000	1314.000
239.000	1328.000
240.000	1318.000
241.000	1352.000
242.000	1334.000
243.000	1373.000
244.000	1447.000
245.000	1576.000
246.000	1843.000
247.000	2212.000
248.000	2803.000
249.000	3647.000
250.000	4780.000
251.000	6445.000
252.000	8366.000
253.000	10454.000
254.000	12783.000
255.000	14724.000
256.000	15857.000
257.000	16428.000
258.000	16297.000
259.000	14654.000
260.000	12975.000
261.000	10835.000
262.000	8660.000
263.000	6698.000
264.000	4862.000
265.000	3794.000
266.000	2915.000
267.000	2427.000
268.000	2190.000
269.000	2142.000
270.000	2322.000
271.000	2427.000
272.000	2608.000
273.000	2917.000
274.000	2983.000
275.000	3134.000
276.000	3207.000
277.000	3070.000
278.000	3089.000
279.000	2961.000
280.000	2961.000
281.000	2902.000
282.000	3130.000
283.000	3417.000
284.000	3867.000
285.000	4566.000
286.000	5270.000
287.000	6093.000
288.000	6615.000
289.000	6958.000
290.000	7149.000
291.000	6961.000
292.000	6315.000
293.000	5784.000
294.000	5110.000
295.000	4300.000
296.000	3650.000
297.000	3023.000
298.000	2737.000
299.000	2376.000
300.000	2221.000
301.000	2103.000
302.000	2087.000
303.000	2045.000
304.000	2124.000
305.000	2296.000
306.000	2300.000
307.000	2534.000
308.000	2609.000
309.000	2860.000
310.000	2897.000
311.000	3168.000
312.000	3586.000
313.000	3964.000
314.000	4585.000
315.000	5299.000
316.000	6746.000
317.000	8337.000
318.000	10686.000
319.000	13391.000
320.000	16290.000
321.000	19279.000
322.000	21726.000
323.000	24296.000
324.000	25071.000
325.000	25125.000
326.000	23935.000
327.000	22064.000
328.000	19140.000
329.000	15987.000
330.000	12771.000
331.000	10224.000
332.000	7751.000
333.000	5994.000
334.000	4556.000
335.000	3825.000
336.000	3318.000
337.000	3206.000
338.000	3464.000
339.000	3676.000
340.000	4249.000
341.000	4895.000
342.000	6093.000
343.000	7568.000
344.000	9983.000
345.000	13569.000
346.000	19464.000
347.000	28723.000
348.000	44848.000
349.000	70046.000
350.000	110948.000
351.000	172052.000
352.000	262554.000
353.000	386086.000
354.000	548006.000
355.000	749214.000
356.000	982493.000
357.000	1230516.000
358.000	1472198.000
359.000	1681495.000
360.000	1836206.000
361.000	1912997.000
362.000	1897833.000
363.000	1800727.000
364.000	1630029.000
365.000	1404460.000
366.000	1157965.000
367.000	911124.000
368.000	684903.000
369.000	490672.000
370.000	337911.000
371.000	222722.000
372.000	141026.000
373.000	87090.000
374.000	53642.000
375.000	33183.000
376.000	22518.000
377.000	17452.000
378.000	15723.000
379.000	16775.000
380.000	20497.000
381.000	25938.000
382.000	35088.000
383.000	47261.000
384.000	64400.000
385.000	86164.000
386.000	113325.000
387.000	144498.000
388.000	177237.000
389.000	211762.000
390.000	242217.000
391.000	266914.000
392.000	280772.000
393.000	284651.000
394.000	276111.000
395.000	258161.000
396.000	228622.000
397.000	195335.000
398.000	159307.000
399.000	125103.000
400.000	93807.000
401.000	67338.000
402.000	46705.000
403.000	31416.000
404.000	19930.000
405.000	12587.000
406.000	7642.000
407.000	4813.000
408.000	2889.000
409.000	1942.000
410.000	1406.000
411.000	1126.000
412.000	953.000
413.000	848.000
414.000	800.000
415.000	787.000
416.000	750.000
417.000	799.000
418.000	783.000
419.000	742.000
420.000	754.000
421.000	774.000
422.000	824.000
423.000	803.000
424.000	880.000
425.000	920.000
426.000	1025.000
427.000	1339.000
428.000	1610.000
429.000	2070.000
430.000	2788.000
431.000	3773.000
432.000	4952.000
433.000	6744.000
434.000	8823.000
435.000	11102.000
436.000	13218.000
437.000	15902.000
438.000	18325.000
439.000	20164.000
440.000	21325.000
441.000	21713.000
442.000	21275.000
443.000	20107.000
444.000	18263.000
445.000	16230.000
446.000	14060.000
447.000	11561.000
448.000	9258.000
449.000	7808.000
450.000	5998.000
451.000	4988.000
452.000	4236.000
453.000	3779.000
454.000	3423.000
455.000	3126.000
456.000	3015.000
457.000	2782.000
458.000	2583.000
459.000	2344.000
460.000	2216.000
461.000	2014.000
462.000	1835.000
463.000	1755.000
464.000	1659.000
465.000	1539.000
466.000	1538.000
467.000	1584.000
468.000	1553.000
469.000	1670.000
470.000	1783.000
471.000	1980.000
472.000	2168.000
473.000	2377.000
474.000	2529.000
475.000	2816.000
476.000	3254.000
477.000	3602.000
478.000	3999.000
479.000	4355.000
480.000	4638.000
481.000	4914.000
482.000	4942.000
483.000	4859.000
484.000	4942.000
485.000	4633.000
486.000	4346.000
487.000	3870.000
488.000	3518.000
489.000	3191.000
490.000	2610.000
491.000	2351.000
492.000	2080.000
493.000	1866.000
494.000	1652.000
495.000	1530.000
496.000	1438.000
497.000	1438.000
498.000	1398.000
499.000	1454.000
500.000	1551.000
501.000	1500.000
502.000	1545.000
503.000	1563.000
504.000	1618.000
505.000	1615.000
506.000	1679.000
507.000	1662.000
508.000	1696.000
509.000	1781.000
510.000	1809.000
511.000	1952.000
512.000	1992.000
513.000	2063.000
514.000	2192.000
515.000	2263.000
516.000	2283.000
517.000	2286.000
518.000	2457.000
519.000	2642.000
520.000	2747.000
521.000	2836.000
522.000	3123.000
523.000	3270.000
524.000	3537.000
525.000	3734.000
526.000	4004.000
527.000	4176.000
528.000	4300.000
529.000	4312.000
530.000	4318.000
531.000	4159.000
532.000	3921.000
533.000	3637.000
534.000	3612.000
535.000	3231.000
536.000	2869.000
537.000	2678.000
538.000	2502.000
539.000	2294.000
540.000	2237.000
541.000	2194.000
542.000	2069.000
543.000	2067.000
544.000	2045.000
545.000	2077.000
546.000	2032.000
547.000	2086.000
548.000	2088.000
549.000	1997.000
550.000	2091.000
551.000	2135.000
552.000	2176.000
553.000	2220.000
554.000	2240.000
555.000	2397.000
556.000	2430.000
557.000	2524.000
558.000	2607.000
559.000	2628.000
560.000	2741.000
561.000	2884.000
562.000	3022.000
563.000	3299.000
564.000	3554.000
565.000	3823.000
566.000	4242.000
567.000	4789.000
568.000	5605.000
569.000	6318.000
570.000	6946.000
571.000	7827.000
572.000	8446.000
573.000	9237.000
574.000	9962.000
575.000	10084.000
576.000	10358.000
577.000	10441.000
578.000	10179.000
579.000	9494.000
580.000	8774.000
581.000	7979.000
582.000	7158.000
583.000	6427.000
584.000	5622.000
585.000	4957.000
586.000	4386.000
587.000	3935.000
588.000	3698.000
589.000	3257.000
590.000	3073.000
591.000	2963.000
592.000	2878.000
593.000	2783.000
594.000	2845.000
595.000	2987.000
596.000	2963.000
597.000	2966.000
598.000	3083.000
599.000	3128.000
600.000	3224.000
601.000	3435.000
602.000	3691.000
603.000	4005.000
604.000	4203.000
605.000	4937.000
606.000	5889.000
607.000	7328.000
608.000	9853.000
609.000	12925.000
610.000	18249.000
611.000	25721.000
612.000	36278.000
613.000	50501.000
614.000	69666.000
615.000	93892.000
616.000	124238.000
617.000	161120.000
618.000	200951.000
619.000	245577.000
620.000	290916.000
621.000	335759.000
622.000	376717.000
623.000	408718.000
624.000	431184.000
625.000	441845.000
626.000	439180.000
627.000	423810.000
628.000	397898.000
629.000	361880.000
630.000	319369.000
631.000	274687.000
632.000	228313.000
633.000	185726.000
634.000	146667.000
635.000	112122.000
636.000	84531.000
637.000	61924.000
638.000	44780.000
639.000	32332.000
640.000	23306.000
641.000	17005.000
642.000	12688.000
643.000	10155.000
644.000	7930.000
645.000	6860.000
646.000	6223.000
647.000	5764.000
648.000	5516.000
649.000	5352.000
650.000	5215.000
651.000	5157.000
652.000	5258.000
653.000	5269.000
654.000	5178.000
655.000	5128.000
656.000	5239.000
657.000	5193.000
658.000	5249.000
659.000	5307.000
660.000	5598.000
661.000	5525.000
662.000	5575.000
663.000	5750.000
664.000	5955.000
665.000	6069.000
666.000	6277.000
667.000	6538.000
668.000	6739.000
669.000	7005.000
670.000	7342.000
671.000	7846.000
672.000	8693.000
673.000	9526.000
674.000	10721.000
675.000	12561.000
676.000	14430.000
677.000	17100.000
678.000	20622.000
679.000	24521.000
680.000	29661.000
681.000	35523.000
682.000	41711.000
683.000	48206.000
684.000	55004.000
685.000	61024.000
686.000	66854.000
687.000	70712.000
688.000	73918.000
689.000	75002.000
690.000	73927.000
691.000	71651.000
692.000	67693.000
693.000	62583.000
694.000	56094.000
695.000	49330.000
696.000	42733.000
697.000	35667.000
698.000	29571.000
699.000	24307.000
700.000	19888.000
701.000	16139.000
702.000	13012.000
703.000	10880.000
704.000	9126.000
705.000	7829.000
706.000	7037.000
707.000	6496.000
708.000	5985.000
709.000	5827.000
710.000	5771.000
711.000	5715.000
712.000	5852.000
713.000	5801.000
714.000	6068.000
715.000	6466.000
716.000	6440.000
717.000	6826.000
718.000	7070.000
719.000	7392.000
720.000	7521.000
721.000	7705.000
722.000	8172.000
723.000	8513.000
724.000	8476.000
725.000	8611.000
726.000	8827.000
727.000	8919.000
728.000	8751.000
729.000	8803.000
730.000	8795.000
731.000	8660.000
732.000	8287.000
733.000	8134.000
734.000	8207.000
735.000	7800.000
736.000	7635.000
737.000	7267.000
738.000	7180.000
739.000	7016.000
740.000	6702.000
741.000	6728.000
742.000	6641.000
743.000	6553.000
744.000	6507.000
745.000	6556.000
746.000	6561.000
747.000	6344.000
748.000	6599.000
749.000	6469.000
750.000	6556.000
751.000	6758.000
752.000	6631.000
753.000	6576.000
754.000	6658.000
755.000	6620.000
756.000	6740.000
757.000	6620.000
758.000	6555.000
759.000	6754.000
760.000	6538.000
761.000	6669.000
762.000	6797.000
763.000	6850.000
764.000	6806.000
765.000	6806.000
766.000	6885.000
767.000	7048.000
768.000	7150.000
769.000	7125.000
770.000	7394.000
771.000	7528.000
772.000	7869.000
773.000	7759.000
774.000	8269.000
775.000	8353.000
776.000	8747.000
777.000	9133.000
778.000	9471.000
779.000	9684.000
780.000	10147.000
781.000	10469.000
782.000	11004.000
783.000	11353.000
784.000	11542.000
785.000	11869.000
786.000	12173.000
787.000	12623.000
788.000	12597.000
789.000	12697.000
790.000	12693.000
791.000	13143.000
792.000	13187.000
793.000	13220.000
794.000	13553.000
795.000	13139.000
796.000	13252.000
797.000	13548.000
798.000	13458.000
799.000	13577.000
800.000	13554.000
801.000	13649.000
802.000	13619.000
803.000	13953.000
804.000	14281.000
805.000	14600.000
806.000	15131.000
807.000	15562.000
808.000	16253.000
809.000	17393.000
810.000	17982.000
811.000	19531.000
812.000	20711.000
813.000	22340.000
814.000	23726.000
815.000	24660.000
816.000	25966.000
817.000	26900.000
818.000	27507.000
819.000	27854.000
820.000	27963.000
821.000	27699.000
822.000	26955.000
823.000	25819.000
824.000	24505.000
825.000	22930.000
826.000	21372.000
827.000	19696.000
828.000	18077.000
829.000	16895.000
830.000	15550.000
831.000	14676.000
832.000	13753.000
833.000	12959.000
834.000	12588.000
835.000	12321.000
836.000	12183.000
837.000	12048.000
838.000	12118.000
839.000	12050.000
840.000	12095.000
841.000	12244.000
842.000	12252.000
843.000	12059.000
844.000	12388.000
845.000	12077.000
846.000	12022.000
847.000	12012.000
848.000	11997.000
849.000	11686.000
850.000	11670.000
851.000	11460.000
852.000	11543.000
853.000	11209.000
854.000	11317.000
855.000	11148.000
856.000	10902.000
857.000	11273.000
858.000	10875.000
859.000	11096.000
860.000	10818.000
861.000	10921.000
862.000	11003.000
863.000	11038.000
864.000	11058.000
865.000	11321.000
866.000	11076.000
867.000	11220.000
868.000	11133.000
869.000	11266.000
870.000	11009.000
871.000	11081.000
872.000	11221.000
873.000	11103.000
874.000	11211.000
875.000	11148.000
876.000	11086.000
877.000	11067.000
878.000	11110.000
879.000	11080.000
880.000	11186.000
881.000	11074.000
882.000	11003.000
883.000	10988.000
884.000	11010.000
885.000	11297.000
886.000	11172.000
887.000	11277.000
888.000	11437.000
889.000	11555.000
890.000	11584.000
891.000	11567.000
892.000	11832.000
893.000	12004.000
894.000	12179.000
895.000	12447.000
896.000	12403.000
897.000	12693.000
898.000	12969.000
899.000	13205.000
900.000	13306.000
901.000	13752.000
902.000	13801.000
903.000	13865.000
904.000	14283.000
905.000	14509.000
906.000	14596.000
907.000	15151.000
908.000	15128.000
909.000	15336.000
910.000	15563.000
911.000	15456.000
912.000	15675.000
913.000	15859.000
914.000	15884.000
915.000	16108.000
916.000	16337.000
917.000	16234.000
918.000	16486.000
919.000	16439.000
920.000	16757.000
921.000	16541.000
922.000	16792.000
923.000	16887.000
924.000	17272.000
925.000	17532.000
926.000	17476.000
927.000	17934.000
928.000	18126.000
929.000	18366.000
930.000	18639.000
931.000	18936.000
932.000	19399.000
933.000	19968.000
934.000	20312.000
935.000	20888.000
936.000	21508.000
937.000	22199.000
938.000	22790.000
939.000	23631.000
940.000	24211.000
941.000	24514.000
942.000	24786.000
943.000	25003.000
944.000	24990.000
945.000	24943.000
946.000	24508.000
947.000	24360.000
948.000	23407.000
949.000	22695.000
950.000	22056.000
951.000	21361.000
952.000	20393.000
953.000	19920.000
954.000	19037.000
955.000	18748.000
956.000	17963.000
957.000	17307.000
958.000	17450.000
959.000	17201.000
960.000	16806.000
961.000	16649.000
962.000	16771.000
963.000	16817.000
964.000	16955.000
965.000	17208.000
966.000	17133.000
967.000	17336.000
968.000	17471.000
969.000	17568.000
970.000	17974.000
971.000	17805.000
972.000	17836.000
973.000	17560.000
974.000	17450.000
975.000	17335.000
976.000	17161.000
977.000	16706.000
978.000	16340.000
979.000	16291.000
980.000	15784.000
981.000	15586.000
982.000	15260.000
983.000	15106.000
984.000	14910.000
985.000	14903.000
986.000	14368.000
987.000	14262.000
988.000	14129.000
989.000	13866.000
990.000	13832.000
991.000	13742.000
992.000	13669.000
993.000	13339.000
994.000	13512.000
995.000	13390.000
996.000	13284.000
997.000	13102.000
998.000	13137.000
999.000	12819.000
1000.000	12979.000
1001.000	12708.000
1002.000	12830.000
1003.000	12876.000
1004.000	12820.000
1005.000	12906.000
1006.000	12600.000
1007.000	12689.000
1008.000	12910.000
1009.000	12874.000
1010.000	12781.000
1011.000	12775.000
1012.000	12787.000
1013.000	12944.000
1014.000	12831.000
1015.000	13044.000
1016.000	12946.000
1017.000	13093.000
1018.000	12883.000
1019.000	13180.000
1020.000	13380.000
1021.000	13228.000
1022.000	13258.000
1023.000	13354.000
1024.000	13373.000
1025.000	13508.000
1026.000	13487.000
1027.000	13799.000
1028.000	13700.000
1029.000	13794.000
1030.000	13776.000
1031.000	13782.000
1032.000	13640.000
1033.000	13742.000
1034.000	13844.000
1035.000	13867.000
1036.000	13932.000
1037.000	13872.000
1038.000	14111.000
1039.000	13852.000
1040.000	13917.000
1041.000	14169.000
1042.000	13966.000
1043.000	14288.000
1044.000	14137.000
1045.000	13955.000
1046.000	14398.000
1047.000	14415.000
1048.000	14492.000
1049.000	14642.000
1050.000	14426.000
1051.000	14558.000
1052.000	14759.000
1053.000	14921.000
1054.000	14828.000
1055.000	15051.000
1056.000	15040.000
1057.000	15140.000
1058.000	14854.000
1059.000	15125.000
1060.000	14980.000
1061.000	15151.000
1062.000	15474.000
1063.000	15233.000
1064.000	14991.000
1065.000	15468.000
1066.000	15327.000
1067.000	15272.000
1068.000	15050.000
1069.000	15320.000
1070.000	15216.000
1071.000	15388.000
1072.000	15267.000
1073.000	15337.000
1074.000	15251.000
1075.000	15265.000
1076.000	15133.000
1077.000	15016.000
1078.000	15231.000
1079.000	14925.000
1080.000	15043.000
1081.000	14816.000
1082.000	15059.000
1083.000	15197.000
1084.000	15038.000
1085.000	15062.000
1086.000	15150.000
1087.000	14978.000
1088.000	15549.000
1089.000	15413.000
1090.000	15981.000
1091.000	15627.000
1092.000	15843.000
1093.000	16012.000
1094.000	16241.000
1095.000	16274.000
1096.000	16115.000
1097.000	16308.000
1098.000	16425.000
1099.000	16811.000
1100.000	16621.000
1101.000	16731.000
1102.000	16458.000
1103.000	16666.000
1104.000	16549.000
1105.000	16434.000
1106.000	16325.000
1107.000	16197.000
1108.000	16096.000
1109.000	15851.000
1110.000	15930.000
1111.000	15629.000
1112.000	15729.000
1113.000	15487.000
1114.000	15349.000
1115.000	15288.000
1116.000	15453.000
1117.000	15464.000
1118.000	15274.000
1119.000	15314.000
1120.000	15354.000
1121.000	15323.000
1122.000	15616.000
1123.000	15318.000
1124.000	15370.000
1125.000	15277.000
1126.000	15487.000
1127.000	15467.000
1128.000	15341.000
1129.000	15556.000
1130.000	15548.000
1131.000	15585.000
1132.000	15525.000
1133.000	15673.000
1134.000	15800.000
1135.000	15704.000
1136.000	15701.000
1137.000	15472.000
1138.000	15805.000
1139.000	15738.000
1140.000	15865.000
1141.000	15749.000
1142.000	15735.000
1143.000	15892.000
1144.000	15828.000
1145.000	15798.000
1146.000	15906.000
1147.000	15866.000
1148.000	16166.000
1149.000	16275.000
1150.000	16800.000
1151.000	16970.000
1152.000	17031.000
1153.000	16984.000
1154.000	17298.000
1155.000	17299.000
1156.000	17798.000
1157.000	17616.000
1158.000	18353.000
1159.000	18340.000
1160.000	18361.000
1161.000	18445.000
1162.000	18332.000
1163.000	18516.000
1164.000	18470.000
1165.000	18010.000
1166.000	18274.000
1167.000	17806.000
1168.000	17590.000
1169.000	17134.000
1170.000	17330.000
1171.000	16997.000
1172.000	16760.000
1173.000	16692.000
1174.000	16261.000
1175.000	16190.000
1176.000	16352.000
1177.000	16091.000
1178.000	15815.000
1179.000	15606.000
1180.000	15693.000
1181.000	15673.000
1182.000	15489.000
1183.000	15471.000
1184.000	15335.000
1185.000	15509.000
1186.000	15266.000
1187.000	15344.000
1188.000	15444.000
1189.000	15470.000
1190.000	15487.000
1191.000	15499.000
1192.000	15434.000
1193.000	15199.000
1194.000	15470.000
1195.000	15387.000
1196.000	15663.000
1197.000	15625.000
1198.000	15495.000
1199.000	15616.000
1200.000	15558.000
1201.000	15591.000
1202.000	16051.000
1203.000	15530.000
1204.000	15704.000
1205.000	15693.000
1206.000	15466.000
1207.000	15981.000
1208.000	15855.000
1209.000	15733.000
1210.000	15871.000
1211.000	15930.000
1212.000	15711.000
1213.000	15938.000
1214.000	15939.000
1215.000	16085.000
1216.000	16090.000
1217.000	16230.000
1218.000	15893.000
1219.000	15983.000
1220.000	16155.000
1221.000	16133.000
1222.000	16259.000
1223.000	15918.000
1224.000	16393.000
1225.000	16161.000
1226.000	16396.000
1227.000	16178.000
1228.000	16192.000
1229.000	16469.000
1230.000	16128.000
1231.000	16278.000
1232.000	16337.000
1233.000	16189.000
1234.000	16508.000
1235.000	16318.000
1236.000	16436.000
1237.000	16408.000
1238.000	16542.000
1239.000	16377.000
1240.000	16218.000
1241.000	16601.000
1242.000	16604.000
1243.000	16408.000
1244.000	16379.000
1245.000	16301.000
1246.000	16196.000
1247.000	16176.000
1248.000	16450.000
1249.000	16419.000
1250.000	16302.000
1251.000	16293.000
1252.000	16232.000
1253.000	16132.000
1254.000	16148.000
1255.000	16335.000
1256.000	16483.000
1257.000	16242.000
1258.000	16358.000
1259.000	16512.000
1260.000	16235.000
1261.000	16189.000
1262.000	16352.000
1263.000	16408.000
1264.000	16351.000
1265.000	16213.000
1266.000	16228.000
1267.000	16197.000
1268.000	16113.000
1269.000	16296.000
1270.000	16283.000
1271.000	16223.000
1272.000	16224.000
1273.000	16013.000
1274.000	16199.000
1275.000	16178.000
1276.000	16215.000
1277.000	16118.000
1278.000	16163.000
1279.000	16225.000
1280.000	16133.000
1281.000	16238.000
1282.000	16307.000
1283.000	16227.000
1284.000	16359.000
1285.000	16526.000
1286.000	16562.000
1287.000	16370.000
1288.000	16588.000
1289.000	16683.000
1290.000	17030.000
1291.000	16986.000
1292.000	16792.000
1293.000	17280.000
1294.000	17429.000
1295.000	17753.000
1296.000	17782.000
1297.000	17717.000
1298.000	17593.000
1299.000	17712.000
1300.000	18001.000
1301.000	17967.000
1302.000	18062.000
1303.000	18056.000
1304.000	17989.000
1305.000	18140.000
1306.000	17851.000
1307.000	18043.000
1308.000	17660.000
1309.000	17914.000
1310.000	17549.000
1311.000	17562.000
1312.000	17742.000
1313.000	17363.000
1314.000	17232.000
1315.000	17196.000
1316.000	17175.000
1317.000	17218.000
1318.000	17089.000
1319.000	17092.000
1320.000	16870.000
1321.000	16631.000
1322.000	16668.000
1323.000	16886.000
1324.000	16860.000
1325.000	16784.000
1326.000	16711.000
1327.000	16921.000
1328.000	16677.000
1329.000	16815.000
1330.000	16820.000
1331.000	17001.000
1332.000	16864.000
1333.000	16743.000
1334.000	16649.000
1335.000	16655.000
1336.000	16882.000
1337.000	16897.000
1338.000	17017.000
1339.000	16723.000
1340.000	16729.000
1341.000	16883.000
1342.000	16840.000
1343.000	16960.000
1344.000	17067.000
1345.000	17227.000
1346.000	17193.000
1347.000	17071.000
1348.000	17184.000
1349.000	17042.000
1350.000	17653.000
1351.000	17207.000
1352.000	17710.000
1353.000	17886.000
1354.000	18389.000
1355.000	18805.000
1356.000	19395.000
1357.000	20103.000
1358.000	20984.000
1359.000	22070.000
1360.000	23487.000
1361.000	25066.000
1362.000	27350.000
1363.000	29825.000
1364.000	32981.000
1365.000	35832.000
1366.000	38907.000
1367.000	43431.000
1368.000	47428.000
1369.000	52479.000
1370.000	57132.000
1371.000	62284.000
1372.000	66883.000
1373.000	72038.000
1374.000	76667.000
1375.000	80080.000
1376.000	84533.000
1377.000	86701.000
1378.000	88605.000
1379.000	90092.000
1380.000	89733.000
1381.000	89141.000
1382.000	87882.000
1383.000	85280.000
1384.000	81512.000
1385.000	77354.000
1386.000	73310.000
1387.000	68737.000
1388.000	63382.000
1389.000	58131.000
1390.000	53220.000
1391.000	48630.000
1392.000	44133.000
1393.000	39515.000
1394.000	35836.000
1395.000	32710.000
1396.000	28981.000
1397.000	26781.000
1398.000	24757.000
1399.000	23103.000
1400.000	21244.000
1401.000	20287.000
1402.000	19270.000
1403.000	18443.000
1404.000	18216.000
1405.000	17677.000
1406.000	17451.000
1407.000	17026.000
1408.000	16784.000
1409.000	16820.000
1410.000	16687.000
1411.000	16639.000
1412.000	16826.000
1413.000	16660.000
1414.000	16474.000
1415.000	16541.000
1416.000	16433.000
1417.000	16536.000
1418.000	16356.000
1419.000	16280.000
1420.000	16742.000
1421.000	16341.000
1422.000	16458.000
1423.000	16687.000
1424.000	16732.000
1425.000	16487.000
1426.000	16376.000
1427.000	16578.000
1428.000	16668.000
1429.000	16541.000
1430.000	16819.000
1431.000	16748.000
1432.000	16539.000
1433.000	16764.000
1434.000	16967.000
1435.000	16590.000
1436.000	16683.000
1437.000	16649.000
1438.000	16724.000
1439.000	16804.000
1440.000	17064.000
1441.000	16682.000
1442.000	17041.000
1443.000	16900.000
1444.000	17078.000
1445.000	17103.000
1446.000	17298.000
1447.000	17473.000
1448.000	17419.000
1449.000	17335.000
1450.000	17446.000
1451.000	17480.000
1452.000	17432.000
1453.000	17718.000
1454.000	17807.000
1455.000	17577.000
1456.000	17762.000
1457.000	17615.000
1458.000	17996.000
1459.000	17723.000
1460.000	17827.000
1461.000	17904.000
1462.000	17796.000
1463.000	17818.000
1464.000	17601.000
1465.000	17482.000
1466.000	17648.000
1467.000	17591.000
1468.000	17517.000
1469.000	17299.000
1470.000	17315.000
1471.000	17338.000
1472.000	17608.000
1473.000	17251.000
1474.000	17160.000
1475.000	17284.000
1476.000	17085.000
1477.000	17219.000
1478.000	17135.000
1479.000	17146.000
1480.000	17190.000
1481.000	17433.000
1482.000	17148.000
1483.000	17268.000
1484.000	17113.000
1485.000	17118.000
1486.000	17448.000
1487.000	17399.000
1488.000	17162.000
1489.000	17371.000
1490.000	17223.000
1491.000	17186.000
1492.000	17181.000
1493.000	17600.000
1494.000	17367.000
1495.000	17569.000
1496.000	17357.000
1497.000	17454.000
1498.000	17438.000
1499.000	17569.000
1500.000	17547.000
1501.000	17320.000
1502.000	17497.000
1503.000	17806.000
1504.000	17886.000
1505.000	17725.000
1506.000	17482.000
1507.000	17592.000
1508.000	17711.000
1509.000	17879.000
1510.000	17906.000
1511.000	17940.000
1512.000	18101.000
1513.000	17787.000
1514.000	18233.000
1515.000	18490.000
1516.000	18285.000
1517.000	18318.000
1518.000	18443.000
1519.000	18647.000
1520.000	18837.000
1521.000	18987.000
1522.000	19596.000
1523.000	19858.000
1524.000	19914.000
1525.000	20434.000
1526.000	20943.000
1527.000	21413.000
1528.000	21806.000
1529.000	22556.000
1530.000	23288.000
1531.000	23931.000
1532.000	24743.000
1533.000	25800.000
1534.000	26596.000
1535.000	27534.000
1536.000	28386.000
1537.000	29501.000
1538.000	30111.000
1539.000	30980.000
1540.000	31650.000
1541.000	32294.000
1542.000	32737.000
1543.000	32985.000
1544.000	32832.000
1545.000	33089.000
1546.000	33153.000
1547.000	32687.000
1548.000	32267.000
1549.000	31650.000
1550.000	31050.000
1551.000	30718.000
1552.000	29739.000
1553.000	29187.000
1554.000	28510.000
1555.000	27750.000
1556.000	27236.000
1557.000	27273.000
1558.000	26617.000
1559.000	26462.000
1560.000	26358.000
1561.000	26367.000
1562.000	26516.000
1563.000	26310.000
1564.000	27123.000
1565.000	26860.000
1566.000	27475.000
1567.000	27803.000
1568.000	28318.000
1569.000	28255.000
1570.000	29143.000
1571.000	29556.000
1572.000	30392.000
1573.000	30769.000
1574.000	31678.000
1575.000	31798.000
1576.000	32707.000
1577.000	33679.000
1578.000	34261.000
1579.000	35167.000
1580.000	36157.000
1581.000	36930.000
1582.000	38394.000
1583.000	38726.000
1584.000	40194.000
1585.000	40641.000
1586.000	41820.000
1587.000	43520.000
1588.000	44452.000
1589.000	45530.000
1590.000	46408.000
1591.000	47860.000
1592.000	49107.000
1593.000	49917.000
1594.000	50992.000
1595.000	52258.000
1596.000	53099.000
1597.000	54221.000
1598.000	54631.000
1599.000	55255.000
1600.000	56554.000
1601.000	57319.000
1602.000	57555.000
1603.000	58294.000
1604.000	58417.000
1605.000	59020.000
1606.000	58911.000
1607.000	59822.000
1608.000	59584.000
1609.000	59400.000
1610.000	59265.000
1611.000	58677.000
1612.000	59066.000
1613.000	58751.000
1614.000	58141.000
1615.000	57332.000
1616.000	56784.000
1617.000	56256.000
1618.000	55257.000
1619.000	54889.000
1620.000	53613.000
1621.000	53033.000
1622.000	52172.000
1623.000	50826.000
1624.000	49493.000
1625.000	48903.000
1626.000	48031.000
1627.000	46193.000
1628.000	44970.000
1629.000	44171.000
1630.000	42814.000
1631.000	41616.000
1632.000	40878.000
1633.000	39580.000
1634.000	38112.000
1635.000	37454.000
1636.000	36179.000
1637.000	35269.000
1638.000	34575.000
1639.000	33040.000
1640.000	32207.000
1641.000	31547.000
1642.000	30636.000
1643.000	29800.000
1644.000	28608.000
1645.000	27894.000
1646.000	27169.000
1647.000	26264.000
1648.000	25643.000
1649.000	25038.000
1650.000	24656.000
1651.000	23762.000
1652.000	23254.000
1653.000	22831.000
1654.000	22305.000
1655.000	21815.000
1656.000	21075.000
1657.000	20804.000
1658.000	20544.000
1659.000	20090.000
1660.000	19767.000
1661.000	19478.000
1662.000	19269.000
1663.000	18815.000
1664.000	18740.000
1665.000	18490.000
1666.000	18371.000
1667.000	18267.000
1668.000	17943.000
1669.000	17964.000
1670.000	17775.000
1671.000	17672.000
1672.000	17683.000
1673.000	17781.000
1674.000	17844.000
1675.000	18187.000
1676.000	18491.000
1677.000	18948.000
1678.000	19620.000
1679.000	19953.000
1680.000	21084.000
1681.000	21860.000
1682.000	23170.000
1683.000	24288.000
1684.000	25300.000
1685.000	27020.000
1686.000	28711.000
1687.000	30618.000
1688.000	32473.000
1689.000	34383.000
1690.000	36738.000
1691.000	38667.000
1692.000	40849.000
1693.000	42408.000
1694.000	44977.000
1695.000	46820.000
1696.000	47914.000
1697.000	49752.000
1698.000	50938.000
1699.000	52218.000
1700.000	53132.000
1701.000	53580.000
1702.000	53290.000
1703.000	52776.000
1704.000	52553.000
1705.000	51307.000
1706.000	49734.000
1707.000	48775.000
1708.000	46371.000
1709.000	44206.000
1710.000	42215.000
1711.000	40235.000
1712.000	37353.000
1713.000	35089.000
1714.000	32205.000
1715.000	29965.000
1716.000	28148.000
1717.000	26134.000
1718.000	24025.000
1719.000	22496.000
1720.000	21264.000
1721.000	19543.000
1722.000	18558.000
1723.000	17383.000
1724.000	16703.000
1725.000	16177.000
1726.000	15532.000
1727.000	15310.000
1728.000	14721.000
1729.000	14708.000
1730.000	14485.000
1731.000	14098.000
1732.000	14111.000
1733.000	14052.000
1734.000	13831.000
1735.000	13919.000
1736.000	13863.000
1737.000	13657.000
1738.000	13793.000
1739.000	13858.000
1740.000	13753.000
1741.000	13860.000
1742.000	13918.000
1743.000	13886.000
1744.000	13974.000
1745.000	13834.000
1746.000	13913.000
1747.000	14114.000
1748.000	14041.000
1749.000	13866.000
1750.000	14084.000
1751.000	14261.000
1752.000	14356.000
1753.000	14241.000
1754.000	14518.000
1755.000	14379.000
1756.000	14531.000
1757.000	14675.000
1758.000	14836.000
1759.000	14827.000
1760.000	15092.000
1761.000	14966.000
1762.000	15315.000
1763.000	15382.000
1764.000	15564.000
1765.000	15684.000
1766.000	15810.000
1767.000	16097.000
1768.000	16089.000
1769.000	16410.000
1770.000	16304.000
1771.000	16426.000
1772.000	16773.000
1773.000	16699.000
1774.000	17088.000
1775.000	17315.000
1776.000	17445.000
1777.000	17464.000
1778.000	17605.000
1779.000	17923.000
1780.000	17962.000
1781.000	18079.000
1782.000	18314.000
1783.000	18465.000
1784.000	18480.000
1785.000	18773.000
1786.000	18706.000
1787.000	18770.000
1788.000	19105.000
1789.000	18946.000
1790.000	18840.000
1791.000	19068.000
1792.000	18993.000
1793.000	18987.000
1794.000	19143.000
1795.000	18894.000
1796.000	18779.000
1797.000	18828.000
1798.000	18825.000
1799.000	18663.000
1800.000	18986.000
1801.000	18897.000
1802.000	18917.000
1803.000	18434.000
1804.000	18508.000
1805.000	18212.000
1806.000	17887.000
1807.000	18016.000
1808.000	17862.000
1809.000	17476.000
1810.000	17267.000
1811.000	17149.000
1812.000	16931.000
1813.000	16672.000
1814.000	16524.000
1815.000	16318.000
1816.000	15946.000
1817.000	16091.000
1818.000	15593.000
1819.000	15352.000
1820.000	15268.000
1821.000	14972.000
1822.000	14628.000
1823.000	14337.000
1824.000	14323.000
1825.000	13845.000
1826.000	13781.000
1827.000	13567.000
1828.000	13368.000
1829.000	13214.000
1830.000	12937.000
1831.000	12778.000
1832.000	12623.000
1833.000	12347.000
1834.000	12318.000
1835.000	12063.000
1836.000	11722.000
1837.000	11529.000
1838.000	11502.000
1839.000	11343.000
1840.000	11061.000
1841.000	10990.000
1842.000	10721.000
1843.000	10595.000
1844.000	10492.000
1845.000	10564.000
1846.000	10113.000
1847.000	9969.000
1848.000	9758.000
1849.000	9906.000
1850.000	9600.000
1851.000	9482.000
1852.000	9553.000
1853.000	9296.000
1854.000	9245.000
1855.000	9081.000
1856.000	9001.000
1857.000	8753.000
1858.000	8801.000
1859.000	8596.000
1860.000	8587.000
1861.000	8580.000
1862.000	8285.000
1863.000	8396.000
1864.000	8195.000
1865.000	8117.000
1866.000	8237.000
1867.000	8011.000
1868.000	8083.000
1869.000	7932.000
1870.000	7814.000
1871.000	7549.000
1872.000	7677.000
1873.000	7657.000
1874.000	7720.000
1875.000	7502.000
1876.000	7492.000
1877.000	7451.000
1878.000	7521.000
1879.000	7357.000
1880.000	7379.000
1881.000	7477.000
1882.000	7339.000
1883.000	7311.000
1884.000	7212.000
1885.000	7226.000
1886.000	7367.000
1887.000	7265.000
1888.000	7274.000
1889.000	7351.000
1890.000	7480.000
1891.000	7576.000
1892.000	7537.000
1893.000	7887.000
1894.000	7949.000
1895.000	8053.000
1896.000	8343.000
1897.000	8658.000
1898.000	8945.000
1899.000	9245.000
1900.000	9347.000
1901.000	9873.000
1902.000	10147.000
1903.000	10356.000
1904.000	10749.000
1905.000	10925.000
1906.000	11350.000
1907.000	11589.000
1908.000	11839.000
1909.000	11648.000
1910.000	11932.000
1911.000	11828.000
1912.000	11832.000
1913.000	12029.000
1914.000	11801.000
1915.000	11310.000
1916.000	11516.000
1917.000	11092.000
1918.000	10991.000
1919.000	10258.000
1920.000	10190.000
1921.000	9503.000
1922.000	9301.000
1923.000	8866.000
1924.000	8674.000
1925.000	8034.000
1926.000	8024.000
1927.000	8027.000
1928.000	7590.000
1929.000	7370.000
1930.000	7031.000
1931.000	7240.000
1932.000	6906.000
1933.000	6916.000
1934.000	6768.000
1935.000	6646.000
1936.000	6671.000
1937.000	6678.000
1938.000	6686.000
1939.000	6702.000
1940.000	6640.000
1941.000	6604.000
1942.000	6592.000
1943.000	6729.000
1944.000	6519.000
1945.000	6641.000
1946.000	6425.000
1947.000	6417.000
1948.000	6423.000
1949.000	6264.000
1950.000	6194.000
1951.000	6376.000
1952.000	6150.000
1953.000	5980.000
1954.000	5982.000
1955.000	5948.000
1956.000	5810.000
1957.000	5762.000
1958.000	5767.000
1959.000	5597.000
1960.000	5617.000
1961.000	5422.000
1962.000	5377.000
1963.000	5374.000
1964.000	5280.000
1965.000	5271.000
1966.000	5168.000
1967.000	5224.000
1968.000	5216.000
1969.000	5170.000
1970.000	5083.000
1971.000	5053.000
1972.000	5158.000
1973.000	5123.000
1974.000	5047.000
1975.000	5012.000
1976.000	5111.000
1977.000	5053.000
1978.000	4986.000
1979.000	4976.000
1980.000	5029.000
1981.000	4984.000
1982.000	5080.000
1983.000	4960.000
1984.000	4933.000
1985.000	5029.000
1986.000	5086.000
1987.000	5105.000
1988.000	4977.000
1989.000	4981.000
1990.000	4984.000
1991.000	4939.000
1992.000	5032.000
1993.000	5022.000
1994.000	5015.000
1995.000	4840.000
1996.000	4891.000
1997.000	4958.000
1998.000	4900.000
1999.000	4935.000
2000.000	4873.000
2001.000	4903.000
2002.000	4804.000
2003.000	4839.000
2004.000	4795.000
2005.000	4870.000
2006.000	4698.000
2007.000	4883.000
2008.000	4862.000
2009.000	4824.000
2010.000	4797.000
2011.000	4704.000
2012.000	4883.000
2013.000	4706.000
2014.000	4757.000
2015.000	4690.000
2016.000	4792.000
2017.000	4714.000
2018.000	4798.000
2019.000	4762.000
2020.000	4648.000
2021.000	4673.000
2022.000	4653.000
2023.000	4724.000
2024.000	4637.000
2025.000	4691.000
2026.000	4651.000
2027.000	4561.000
2028.000	4703.000
2029.000	4631.000
2030.000	4644.000
2031.000	4617.000
2032.000	4583.000
2033.000	4702.000
2034.000	4543.000
2035.000	4604.000
2036.000	4602.000
2037.000	4663.000
2038.000	4618.000
2039.000	4575.000
2040.000	4636.000
2041.000	4527.000
2042.000	4553.000
2043.000	4622.000
2044.000	4551.000
2045.000	4535.000
2046.000	4549.000
2047.000	4475.000
2048.000	0.000
