Date:	22-Sep-20		Time:	11:17 PM		Version no:	0.00		Project name:	55		Sample name:	222		Section name:	section		Position	0.000000	mm	E0	0.000000	keV	E1	1.000000	keV/channel	sample surface	2.000000	cm	Tube anode:	Mo		Tube voltage:	30	kV	Tube current:	30	mA	gain	15		std. database			resultfile	result		matrix element	11		sample thickness	1.000000		air passage	0.560000	cm	comments	not in position		peaking_time	0.300000	m-sec	trigger_threshold	40.000000	V	mca_bin_width	2.000000	no:	number_mca_channels	2048.000000	no:	gap_time	2048.000000	m-sec	trigger_peaking_time	2048.000000	m-sec	GAINDAC	400		HIGHGAIN	400		TAURC	400		RCTAU	400		RCTAUFRAC	400		livetime	13.457225	seconds	runtime	15.000009	seconds	input_count_rate	48194.706552	cps	output_count_rate	43237.774057	cps	triggers	711323	seconds	events_in_run	632956	seconds	channel	content		1.000	0.000
2.000	0.000
3.000	0.000
4.000	0.000
5.000	0.000
6.000	0.000
7.000	0.000
8.000	0.000
9.000	0.000
10.000	0.000
11.000	0.000
12.000	0.000
13.000	0.000
14.000	0.000
15.000	0.000
16.000	0.000
17.000	0.000
18.000	0.000
19.000	0.000
20.000	0.000
21.000	0.000
22.000	0.000
23.000	0.000
24.000	0.000
25.000	0.000
26.000	0.000
27.000	0.000
28.000	0.000
29.000	0.000
30.000	0.000
31.000	34.000
32.000	35.000
33.000	36.000
34.000	31.000
35.000	31.000
36.000	37.000
37.000	38.000
38.000	26.000
39.000	31.000
40.000	35.000
41.000	33.000
42.000	23.000
43.000	36.000
44.000	35.000
45.000	24.000
46.000	40.000
47.000	49.000
48.000	55.000
49.000	59.000
50.000	94.000
51.000	158.000
52.000	182.000
53.000	292.000
54.000	356.000
55.000	470.000
56.000	642.000
57.000	866.000
58.000	1220.000
59.000	1804.000
60.000	2231.000
61.000	2661.000
62.000	2872.000
63.000	3014.000
64.000	2972.000
65.000	2847.000
66.000	2746.000
67.000	2637.000
68.000	2584.000
69.000	2528.000
70.000	2449.000
71.000	2393.000
72.000	2497.000
73.000	2514.000
74.000	2454.000
75.000	2390.000
76.000	2364.000
77.000	2398.000
78.000	2325.000
79.000	2374.000
80.000	2298.000
81.000	2339.000
82.000	2338.000
83.000	2458.000
84.000	2480.000
85.000	2456.000
86.000	2504.000
87.000	2473.000
88.000	2488.000
89.000	2301.000
90.000	2249.000
91.000	2315.000
92.000	2119.000
93.000	2166.000
94.000	2106.000
95.000	2064.000
96.000	2108.000
97.000	1984.000
98.000	2040.000
99.000	2051.000
100.000	1935.000
101.000	2039.000
102.000	1951.000
103.000	1992.000
104.000	1975.000
105.000	1976.000
106.000	1808.000
107.000	1908.000
108.000	1905.000
109.000	1851.000
110.000	1900.000
111.000	1780.000
112.000	1727.000
113.000	1745.000
114.000	1795.000
115.000	1746.000
116.000	1716.000
117.000	1756.000
118.000	1727.000
119.000	1768.000
120.000	1675.000
121.000	1725.000
122.000	1732.000
123.000	1588.000
124.000	1602.000
125.000	1641.000
126.000	1565.000
127.000	1638.000
128.000	1514.000
129.000	1543.000
130.000	1494.000
131.000	1510.000
132.000	1489.000
133.000	1536.000
134.000	1526.000
135.000	1537.000
136.000	1474.000
137.000	1540.000
138.000	1606.000
139.000	1654.000
140.000	1785.000
141.000	1953.000
142.000	2064.000
143.000	2360.000
144.000	2412.000
145.000	2479.000
146.000	2609.000
147.000	2564.000
148.000	2398.000
149.000	2252.000
150.000	2079.000
151.000	1942.000
152.000	1896.000
153.000	1724.000
154.000	1744.000
155.000	1635.000
156.000	1550.000
157.000	1524.000
158.000	1375.000
159.000	1422.000
160.000	1405.000
161.000	1334.000
162.000	1480.000
163.000	1692.000
164.000	2033.000
165.000	2513.000
166.000	2970.000
167.000	3924.000
168.000	4481.000
169.000	5102.000
170.000	5667.000
171.000	5602.000
172.000	5381.000
173.000	4933.000
174.000	4397.000
175.000	3823.000
176.000	3361.000
177.000	2931.000
178.000	2842.000
179.000	2843.000
180.000	2994.000
181.000	3369.000
182.000	4113.000
183.000	5052.000
184.000	6508.000
185.000	8611.000
186.000	11388.000
187.000	14681.000
188.000	17753.000
189.000	20404.000
190.000	22734.000
191.000	23503.000
192.000	22344.000
193.000	20288.000
194.000	17460.000
195.000	14014.000
196.000	10593.000
197.000	7689.000
198.000	5474.000
199.000	3835.000
200.000	2894.000
201.000	2149.000
202.000	1862.000
203.000	1640.000
204.000	1521.000
205.000	1544.000
206.000	1532.000
207.000	1575.000
208.000	1527.000
209.000	1537.000
210.000	1568.000
211.000	1637.000
212.000	1726.000
213.000	1813.000
214.000	1973.000
215.000	2087.000
216.000	2340.000
217.000	2553.000
218.000	3084.000
219.000	3466.000
220.000	3934.000
221.000	4339.000
222.000	4528.000
223.000	4681.000
224.000	4453.000
225.000	4218.000
226.000	3959.000
227.000	3496.000
228.000	3092.000
229.000	2608.000
230.000	2221.000
231.000	1982.000
232.000	1711.000
233.000	1466.000
234.000	1419.000
235.000	1359.000
236.000	1341.000
237.000	1362.000
238.000	1290.000
239.000	1278.000
240.000	1339.000
241.000	1325.000
242.000	1315.000
243.000	1369.000
244.000	1475.000
245.000	1507.000
246.000	1723.000
247.000	2119.000
248.000	2695.000
249.000	3429.000
250.000	4893.000
251.000	6505.000
252.000	8468.000
253.000	10467.000
254.000	12654.000
255.000	14555.000
256.000	15738.000
257.000	16417.000
258.000	16118.000
259.000	14761.000
260.000	12892.000
261.000	10716.000
262.000	8752.000
263.000	6639.000
264.000	4950.000
265.000	3816.000
266.000	3021.000
267.000	2450.000
268.000	2232.000
269.000	2148.000
270.000	2308.000
271.000	2346.000
272.000	2572.000
273.000	2835.000
274.000	3131.000
275.000	3096.000
276.000	3132.000
277.000	3132.000
278.000	3075.000
279.000	2917.000
280.000	2949.000
281.000	3028.000
282.000	3047.000
283.000	3397.000
284.000	3862.000
285.000	4466.000
286.000	5279.000
287.000	6047.000
288.000	6430.000
289.000	6977.000
290.000	7066.000
291.000	6921.000
292.000	6414.000
293.000	5778.000
294.000	5010.000
295.000	4288.000
296.000	3563.000
297.000	3136.000
298.000	2656.000
299.000	2365.000
300.000	2141.000
301.000	2060.000
302.000	2050.000
303.000	2064.000
304.000	2119.000
305.000	2203.000
306.000	2381.000
307.000	2507.000
308.000	2678.000
309.000	2796.000
310.000	2944.000
311.000	3325.000
312.000	3537.000
313.000	4037.000
314.000	4517.000
315.000	5513.000
316.000	6489.000
317.000	8463.000
318.000	10517.000
319.000	12960.000
320.000	16101.000
321.000	19498.000
322.000	21872.000
323.000	24051.000
324.000	25330.000
325.000	25186.000
326.000	24210.000
327.000	21902.000
328.000	19300.000
329.000	15983.000
330.000	12866.000
331.000	9999.000
332.000	7788.000
333.000	5937.000
334.000	4624.000
335.000	3774.000
336.000	3304.000
337.000	3227.000
338.000	3303.000
339.000	3663.000
340.000	4312.000
341.000	4875.000
342.000	6060.000
343.000	7535.000
344.000	9800.000
345.000	13489.000
346.000	19477.000
347.000	28860.000
348.000	44597.000
349.000	70292.000
350.000	111242.000
351.000	172660.000
352.000	261757.000
353.000	386460.000
354.000	548447.000
355.000	749839.000
356.000	982828.000
357.000	1227100.000
358.000	1472251.000
359.000	1679479.000
360.000	1837079.000
361.000	1909739.000
362.000	1898082.000
363.000	1797318.000
364.000	1630096.000
365.000	1407078.000
366.000	1157267.000
367.000	911494.000
368.000	686010.000
369.000	491184.000
370.000	337670.000
371.000	222163.000
372.000	141516.000
373.000	87628.000
374.000	53586.000
375.000	33550.000
376.000	22461.000
377.000	17100.000
378.000	15745.000
379.000	17048.000
380.000	20266.000
381.000	26587.000
382.000	35197.000
383.000	47544.000
384.000	64467.000
385.000	85875.000
386.000	113222.000
387.000	144009.000
388.000	177790.000
389.000	211414.000
390.000	242162.000
391.000	267244.000
392.000	280989.000
393.000	285130.000
394.000	277043.000
395.000	256908.000
396.000	229370.000
397.000	195506.000
398.000	158791.000
399.000	125170.000
400.000	93711.000
401.000	67775.000
402.000	47579.000
403.000	31189.000
404.000	20003.000
405.000	12366.000
406.000	7833.000
407.000	4746.000
408.000	2916.000
409.000	1913.000
410.000	1393.000
411.000	1135.000
412.000	962.000
413.000	822.000
414.000	792.000
415.000	772.000
416.000	759.000
417.000	735.000
418.000	747.000
419.000	722.000
420.000	813.000
421.000	759.000
422.000	786.000
423.000	851.000
424.000	869.000
425.000	957.000
426.000	1110.000
427.000	1266.000
428.000	1637.000
429.000	2111.000
430.000	2780.000
431.000	3855.000
432.000	5169.000
433.000	6771.000
434.000	8675.000
435.000	11060.000
436.000	13566.000
437.000	16046.000
438.000	18272.000
439.000	19924.000
440.000	21233.000
441.000	21960.000
442.000	21432.000
443.000	20344.000
444.000	18440.000
445.000	16294.000
446.000	13813.000
447.000	11568.000
448.000	9402.000
449.000	7548.000
450.000	5974.000
451.000	4952.000
452.000	4243.000
453.000	3808.000
454.000	3334.000
455.000	3159.000
456.000	3119.000
457.000	2743.000
458.000	2565.000
459.000	2343.000
460.000	2239.000
461.000	1939.000
462.000	1794.000
463.000	1692.000
464.000	1611.000
465.000	1527.000
466.000	1568.000
467.000	1490.000
468.000	1603.000
469.000	1682.000
470.000	1774.000
471.000	1894.000
472.000	2129.000
473.000	2396.000
474.000	2569.000
475.000	2874.000
476.000	3223.000
477.000	3520.000
478.000	4008.000
479.000	4230.000
480.000	4599.000
481.000	4853.000
482.000	5102.000
483.000	5071.000
484.000	4894.000
485.000	4569.000
486.000	4239.000
487.000	3939.000
488.000	3511.000
489.000	2994.000
490.000	2595.000
491.000	2443.000
492.000	2034.000
493.000	1823.000
494.000	1684.000
495.000	1515.000
496.000	1411.000
497.000	1485.000
498.000	1401.000
499.000	1541.000
500.000	1494.000
501.000	1517.000
502.000	1582.000
503.000	1648.000
504.000	1617.000
505.000	1680.000
506.000	1640.000
507.000	1680.000
508.000	1778.000
509.000	1878.000
510.000	1856.000
511.000	1881.000
512.000	2027.000
513.000	2075.000
514.000	2052.000
515.000	2152.000
516.000	2259.000
517.000	2429.000
518.000	2388.000
519.000	2618.000
520.000	2708.000
521.000	2879.000
522.000	3181.000
523.000	3380.000
524.000	3607.000
525.000	3825.000
526.000	4009.000
527.000	4289.000
528.000	4343.000
529.000	4221.000
530.000	4214.000
531.000	4061.000
532.000	3957.000
533.000	3578.000
534.000	3493.000
535.000	3175.000
536.000	2992.000
537.000	2703.000
538.000	2564.000
539.000	2321.000
540.000	2221.000
541.000	2126.000
542.000	2084.000
543.000	2010.000
544.000	1965.000
545.000	1975.000
546.000	1964.000
547.000	2038.000
548.000	2001.000
549.000	2079.000
550.000	2004.000
551.000	2175.000
552.000	2122.000
553.000	2129.000
554.000	2315.000
555.000	2297.000
556.000	2394.000
557.000	2494.000
558.000	2640.000
559.000	2577.000
560.000	2726.000
561.000	2886.000
562.000	3113.000
563.000	3293.000
564.000	3471.000
565.000	3878.000
566.000	4280.000
567.000	4847.000
568.000	5601.000
569.000	6172.000
570.000	7077.000
571.000	7839.000
572.000	8444.000
573.000	9386.000
574.000	9886.000
575.000	10393.000
576.000	10401.000
577.000	10404.000
578.000	9772.000
579.000	9521.000
580.000	8933.000
581.000	8106.000
582.000	7102.000
583.000	6417.000
584.000	5610.000
585.000	5060.000
586.000	4435.000
587.000	4009.000
588.000	3708.000
589.000	3290.000
590.000	3093.000
591.000	2955.000
592.000	2796.000
593.000	2820.000
594.000	2828.000
595.000	2797.000
596.000	3067.000
597.000	2918.000
598.000	3087.000
599.000	3108.000
600.000	3267.000
601.000	3417.000
602.000	3638.000
603.000	3814.000
604.000	4326.000
605.000	4911.000
606.000	6019.000
607.000	7449.000
608.000	9647.000
609.000	12938.000
610.000	18124.000
611.000	25654.000
612.000	36094.000
613.000	50883.000
614.000	69760.000
615.000	94287.000
616.000	124555.000
617.000	160780.000
618.000	201121.000
619.000	246627.000
620.000	291500.000
621.000	335387.000
622.000	375289.000
623.000	409466.000
624.000	431639.000
625.000	441108.000
626.000	440079.000
627.000	424783.000
628.000	397224.000
629.000	361109.000
630.000	319761.000
631.000	273729.000
632.000	227794.000
633.000	185285.000
634.000	146131.000
635.000	112252.000
636.000	84838.000
637.000	62175.000
638.000	45049.000
639.000	32129.000
640.000	23172.000
641.000	16905.000
642.000	12924.000
643.000	9914.000
644.000	8060.000
645.000	6831.000
646.000	6253.000
647.000	5787.000
648.000	5537.000
649.000	5260.000
650.000	5279.000
651.000	5182.000
652.000	5324.000
653.000	5121.000
654.000	5217.000
655.000	5217.000
656.000	5251.000
657.000	5183.000
658.000	5366.000
659.000	5559.000
660.000	5440.000
661.000	5642.000
662.000	5622.000
663.000	5875.000
664.000	5787.000
665.000	5933.000
666.000	6276.000
667.000	6481.000
668.000	6832.000
669.000	6911.000
670.000	7454.000
671.000	7854.000
672.000	8619.000
673.000	9696.000
674.000	10566.000
675.000	12319.000
676.000	14350.000
677.000	17203.000
678.000	20577.000
679.000	24567.000
680.000	29552.000
681.000	35585.000
682.000	41407.000
683.000	48017.000
684.000	54601.000
685.000	60807.000
686.000	66423.000
687.000	70895.000
688.000	74022.000
689.000	74517.000
690.000	74452.000
691.000	71830.000
692.000	67728.000
693.000	62225.000
694.000	55754.000
695.000	48966.000
696.000	42437.000
697.000	35968.000
698.000	29850.000
699.000	24556.000
700.000	19907.000
701.000	16058.000
702.000	12958.000
703.000	10654.000
704.000	8978.000
705.000	7733.000
706.000	6839.000
707.000	6393.000
708.000	6040.000
709.000	5984.000
710.000	5739.000
711.000	5768.000
712.000	5773.000
713.000	6039.000
714.000	6076.000
715.000	6284.000
716.000	6405.000
717.000	6782.000
718.000	7104.000
719.000	7456.000
720.000	7510.000
721.000	7699.000
722.000	8173.000
723.000	8301.000
724.000	8380.000
725.000	8762.000
726.000	8750.000
727.000	8799.000
728.000	8767.000
729.000	8817.000
730.000	8643.000
731.000	8551.000
732.000	8450.000
733.000	8221.000
734.000	7953.000
735.000	7710.000
736.000	7405.000
737.000	7360.000
738.000	7079.000
739.000	7074.000
740.000	6764.000
741.000	6810.000
742.000	6702.000
743.000	6640.000
744.000	6685.000
745.000	6537.000
746.000	6504.000
747.000	6570.000
748.000	6644.000
749.000	6634.000
750.000	6592.000
751.000	6639.000
752.000	6619.000
753.000	6657.000
754.000	6647.000
755.000	6673.000
756.000	6681.000
757.000	6605.000
758.000	6690.000
759.000	6480.000
760.000	6649.000
761.000	6820.000
762.000	6725.000
763.000	6706.000
764.000	6723.000
765.000	6916.000
766.000	7060.000
767.000	7083.000
768.000	7269.000
769.000	7401.000
770.000	7252.000
771.000	7464.000
772.000	7685.000
773.000	7821.000
774.000	8189.000
775.000	8399.000
776.000	8711.000
777.000	9002.000
778.000	9325.000
779.000	9760.000
780.000	10039.000
781.000	10529.000
782.000	11014.000
783.000	11261.000
784.000	11454.000
785.000	11618.000
786.000	12253.000
787.000	12404.000
788.000	12544.000
789.000	13112.000
790.000	12894.000
791.000	13027.000
792.000	13080.000
793.000	13136.000
794.000	13164.000
795.000	13570.000
796.000	13566.000
797.000	13527.000
798.000	13336.000
799.000	13632.000
800.000	13389.000
801.000	13660.000
802.000	13752.000
803.000	13900.000
804.000	14189.000
805.000	14528.000
806.000	14752.000
807.000	15450.000
808.000	16279.000
809.000	17130.000
810.000	17997.000
811.000	19216.000
812.000	20848.000
813.000	22491.000
814.000	23322.000
815.000	24891.000
816.000	25506.000
817.000	26893.000
818.000	27676.000
819.000	27616.000
820.000	28131.000
821.000	27695.000
822.000	26614.000
823.000	25520.000
824.000	24439.000
825.000	22798.000
826.000	21404.000
827.000	20016.000
828.000	18233.000
829.000	16696.000
830.000	15781.000
831.000	14649.000
832.000	13837.000
833.000	13109.000
834.000	12648.000
835.000	12220.000
836.000	12145.000
837.000	11856.000
838.000	12068.000
839.000	11956.000
840.000	12201.000
841.000	12231.000
842.000	12247.000
843.000	11917.000
844.000	12353.000
845.000	12233.000
846.000	12096.000
847.000	12125.000
848.000	11842.000
849.000	11770.000
850.000	11637.000
851.000	11551.000
852.000	11519.000
853.000	11183.000
854.000	11195.000
855.000	11151.000
856.000	10959.000
857.000	11014.000
858.000	11002.000
859.000	10839.000
860.000	10883.000
861.000	11011.000
862.000	11177.000
863.000	10916.000
864.000	11110.000
865.000	11156.000
866.000	11196.000
867.000	11157.000
868.000	11365.000
869.000	10970.000
870.000	11099.000
871.000	11162.000
872.000	11137.000
873.000	11013.000
874.000	10969.000
875.000	11149.000
876.000	11114.000
877.000	11130.000
878.000	11168.000
879.000	11150.000
880.000	10929.000
881.000	11032.000
882.000	11066.000
883.000	10996.000
884.000	11129.000
885.000	11189.000
886.000	11201.000
887.000	11303.000
888.000	11528.000
889.000	11477.000
890.000	11662.000
891.000	11607.000
892.000	11729.000
893.000	12039.000
894.000	12291.000
895.000	12489.000
896.000	12568.000
897.000	12831.000
898.000	12919.000
899.000	13015.000
900.000	13327.000
901.000	13512.000
902.000	13796.000
903.000	14128.000
904.000	14259.000
905.000	14559.000
906.000	14568.000
907.000	15109.000
908.000	15155.000
909.000	15242.000
910.000	15289.000
911.000	15592.000
912.000	15497.000
913.000	15619.000
914.000	16067.000
915.000	16244.000
916.000	16231.000
917.000	16224.000
918.000	16493.000
919.000	16624.000
920.000	16551.000
921.000	16806.000
922.000	17077.000
923.000	17111.000
924.000	17107.000
925.000	17352.000
926.000	17779.000
927.000	17759.000
928.000	18147.000
929.000	18461.000
930.000	18808.000
931.000	18913.000
932.000	19281.000
933.000	19692.000
934.000	20233.000
935.000	21029.000
936.000	21580.000
937.000	21999.000
938.000	22995.000
939.000	23405.000
940.000	24124.000
941.000	24508.000
942.000	24569.000
943.000	25092.000
944.000	25172.000
945.000	24644.000
946.000	24415.000
947.000	24318.000
948.000	23616.000
949.000	22497.000
950.000	21878.000
951.000	21294.000
952.000	20431.000
953.000	19729.000
954.000	19255.000
955.000	18739.000
956.000	18005.000
957.000	17663.000
958.000	17115.000
959.000	17065.000
960.000	17054.000
961.000	16987.000
962.000	16665.000
963.000	17084.000
964.000	17269.000
965.000	17142.000
966.000	17276.000
967.000	17583.000
968.000	17487.000
969.000	17421.000
970.000	17846.000
971.000	17619.000
972.000	17753.000
973.000	17725.000
974.000	17614.000
975.000	17184.000
976.000	16918.000
977.000	16900.000
978.000	16521.000
979.000	16201.000
980.000	15822.000
981.000	15944.000
982.000	15452.000
983.000	15013.000
984.000	14901.000
985.000	14770.000
986.000	14530.000
987.000	14290.000
988.000	14122.000
989.000	13805.000
990.000	13828.000
991.000	13717.000
992.000	13580.000
993.000	13391.000
994.000	13190.000
995.000	13238.000
996.000	13044.000
997.000	13148.000
998.000	12995.000
999.000	13117.000
1000.000	13020.000
1001.000	12936.000
1002.000	12705.000
1003.000	12848.000
1004.000	12900.000
1005.000	12846.000
1006.000	12904.000
1007.000	12769.000
1008.000	12661.000
1009.000	12686.000
1010.000	12746.000
1011.000	12928.000
1012.000	12856.000
1013.000	13019.000
1014.000	13150.000
1015.000	12878.000
1016.000	12892.000
1017.000	13275.000
1018.000	13145.000
1019.000	13061.000
1020.000	13091.000
1021.000	13347.000
1022.000	13201.000
1023.000	13469.000
1024.000	13469.000
1025.000	13623.000
1026.000	13743.000
1027.000	13580.000
1028.000	13663.000
1029.000	13757.000
1030.000	13516.000
1031.000	13839.000
1032.000	13863.000
1033.000	13762.000
1034.000	13809.000
1035.000	13854.000
1036.000	13829.000
1037.000	13857.000
1038.000	14043.000
1039.000	13806.000
1040.000	13980.000
1041.000	14021.000
1042.000	14046.000
1043.000	14248.000
1044.000	14159.000
1045.000	14271.000
1046.000	14170.000
1047.000	14418.000
1048.000	14271.000
1049.000	14504.000
1050.000	14553.000
1051.000	14690.000
1052.000	14748.000
1053.000	15097.000
1054.000	15014.000
1055.000	14960.000
1056.000	15085.000
1057.000	15022.000
1058.000	14964.000
1059.000	14921.000
1060.000	15016.000
1061.000	15539.000
1062.000	15455.000
1063.000	15412.000
1064.000	15332.000
1065.000	15059.000
1066.000	15349.000
1067.000	15399.000
1068.000	15238.000
1069.000	15154.000
1070.000	15308.000
1071.000	15142.000
1072.000	15236.000
1073.000	15196.000
1074.000	15097.000
1075.000	15270.000
1076.000	15308.000
1077.000	15456.000
1078.000	15209.000
1079.000	15108.000
1080.000	14867.000
1081.000	15144.000
1082.000	15163.000
1083.000	15189.000
1084.000	15166.000
1085.000	15001.000
1086.000	15115.000
1087.000	15264.000
1088.000	15433.000
1089.000	15585.000
1090.000	15811.000
1091.000	15564.000
1092.000	15973.000
1093.000	15896.000
1094.000	15838.000
1095.000	16260.000
1096.000	16177.000
1097.000	16239.000
1098.000	16305.000
1099.000	16590.000
1100.000	16603.000
1101.000	16628.000
1102.000	16417.000
1103.000	16578.000
1104.000	16426.000
1105.000	16522.000
1106.000	16368.000
1107.000	16328.000
1108.000	16207.000
1109.000	15964.000
1110.000	16012.000
1111.000	15809.000
1112.000	15807.000
1113.000	15477.000
1114.000	15614.000
1115.000	15516.000
1116.000	15377.000
1117.000	15299.000
1118.000	15492.000
1119.000	15552.000
1120.000	15437.000
1121.000	15253.000
1122.000	15309.000
1123.000	15488.000
1124.000	15344.000
1125.000	15373.000
1126.000	15539.000
1127.000	15431.000
1128.000	15468.000
1129.000	15330.000
1130.000	15738.000
1131.000	15635.000
1132.000	15748.000
1133.000	15814.000
1134.000	15642.000
1135.000	15582.000
1136.000	15938.000
1137.000	15671.000
1138.000	15956.000
1139.000	15992.000
1140.000	15796.000
1141.000	15861.000
1142.000	15771.000
1143.000	15987.000
1144.000	15916.000
1145.000	16014.000
1146.000	15901.000
1147.000	16172.000
1148.000	16364.000
1149.000	16309.000
1150.000	16401.000
1151.000	16724.000
1152.000	16701.000
1153.000	16926.000
1154.000	17066.000
1155.000	17481.000
1156.000	17763.000
1157.000	17904.000
1158.000	17971.000
1159.000	18244.000
1160.000	18430.000
1161.000	18283.000
1162.000	18282.000
1163.000	18291.000
1164.000	18286.000
1165.000	18311.000
1166.000	18363.000
1167.000	17633.000
1168.000	17520.000
1169.000	17507.000
1170.000	17271.000
1171.000	17038.000
1172.000	16839.000
1173.000	16747.000
1174.000	16496.000
1175.000	16238.000
1176.000	16408.000
1177.000	16100.000
1178.000	15994.000
1179.000	15590.000
1180.000	15809.000
1181.000	15652.000
1182.000	15378.000
1183.000	15639.000
1184.000	15490.000
1185.000	15445.000
1186.000	15306.000
1187.000	15390.000
1188.000	15521.000
1189.000	15515.000
1190.000	15244.000
1191.000	15456.000
1192.000	15394.000
1193.000	15449.000
1194.000	15418.000
1195.000	15460.000
1196.000	15407.000
1197.000	15296.000
1198.000	15607.000
1199.000	15703.000
1200.000	15557.000
1201.000	15581.000
1202.000	15407.000
1203.000	15704.000
1204.000	15657.000
1205.000	16084.000
1206.000	15787.000
1207.000	15735.000
1208.000	15956.000
1209.000	15834.000
1210.000	15815.000
1211.000	16177.000
1212.000	15966.000
1213.000	15866.000
1214.000	16036.000
1215.000	16066.000
1216.000	15942.000
1217.000	16183.000
1218.000	16157.000
1219.000	15932.000
1220.000	16087.000
1221.000	16179.000
1222.000	16448.000
1223.000	16182.000
1224.000	16062.000
1225.000	16264.000
1226.000	16303.000
1227.000	16239.000
1228.000	16267.000
1229.000	16679.000
1230.000	16156.000
1231.000	16393.000
1232.000	16584.000
1233.000	16492.000
1234.000	16456.000
1235.000	16078.000
1236.000	16306.000
1237.000	16590.000
1238.000	16300.000
1239.000	16279.000
1240.000	16493.000
1241.000	16493.000
1242.000	16549.000
1243.000	16553.000
1244.000	16370.000
1245.000	16408.000
1246.000	16385.000
1247.000	16451.000
1248.000	16528.000
1249.000	16336.000
1250.000	16432.000
1251.000	16193.000
1252.000	16367.000
1253.000	16307.000
1254.000	16159.000
1255.000	16057.000
1256.000	16323.000
1257.000	16133.000
1258.000	16391.000
1259.000	16196.000
1260.000	16218.000
1261.000	16221.000
1262.000	16069.000
1263.000	16305.000
1264.000	16154.000
1265.000	16272.000
1266.000	16005.000
1267.000	15969.000
1268.000	16125.000
1269.000	16215.000
1270.000	16141.000
1271.000	16479.000
1272.000	16149.000
1273.000	16063.000
1274.000	16284.000
1275.000	16306.000
1276.000	16370.000
1277.000	16089.000
1278.000	16161.000
1279.000	16245.000
1280.000	16208.000
1281.000	16335.000
1282.000	16123.000
1283.000	16314.000
1284.000	16347.000
1285.000	16676.000
1286.000	16538.000
1287.000	16755.000
1288.000	16778.000
1289.000	16793.000
1290.000	17070.000
1291.000	16759.000
1292.000	17285.000
1293.000	17299.000
1294.000	17320.000
1295.000	17399.000
1296.000	17712.000
1297.000	17845.000
1298.000	17813.000
1299.000	18199.000
1300.000	18097.000
1301.000	17872.000
1302.000	17895.000
1303.000	17742.000
1304.000	18043.000
1305.000	18102.000
1306.000	17877.000
1307.000	18079.000
1308.000	17836.000
1309.000	17802.000
1310.000	17719.000
1311.000	17673.000
1312.000	17693.000
1313.000	17390.000
1314.000	17393.000
1315.000	17220.000
1316.000	17171.000
1317.000	17109.000
1318.000	16903.000
1319.000	17135.000
1320.000	16958.000
1321.000	16848.000
1322.000	17053.000
1323.000	16944.000
1324.000	16743.000
1325.000	16783.000
1326.000	16752.000
1327.000	16896.000
1328.000	17031.000
1329.000	16836.000
1330.000	16750.000
1331.000	16733.000
1332.000	16745.000
1333.000	16930.000
1334.000	16871.000
1335.000	16933.000
1336.000	16761.000
1337.000	17246.000
1338.000	16929.000
1339.000	16936.000
1340.000	17022.000
1341.000	16859.000
1342.000	16860.000
1343.000	17225.000
1344.000	16609.000
1345.000	17148.000
1346.000	16892.000
1347.000	17096.000
1348.000	17423.000
1349.000	17148.000
1350.000	17510.000
1351.000	17338.000
1352.000	17643.000
1353.000	17907.000
1354.000	18114.000
1355.000	18721.000
1356.000	19366.000
1357.000	19889.000
1358.000	21115.000
1359.000	22318.000
1360.000	23461.000
1361.000	25084.000
1362.000	27276.000
1363.000	29758.000
1364.000	32934.000
1365.000	36014.000
1366.000	39574.000
1367.000	43368.000
1368.000	47786.000
1369.000	52203.000
1370.000	56811.000
1371.000	61812.000
1372.000	67323.000
1373.000	71724.000
1374.000	75963.000
1375.000	80089.000
1376.000	83449.000
1377.000	86525.000
1378.000	88920.000
1379.000	90541.000
1380.000	90088.000
1381.000	89813.000
1382.000	87929.000
1383.000	84915.000
1384.000	81882.000
1385.000	77791.000
1386.000	73869.000
1387.000	68718.000
1388.000	63451.000
1389.000	58663.000
1390.000	53106.000
1391.000	48772.000
1392.000	43413.000
1393.000	39380.000
1394.000	35719.000
1395.000	32334.000
1396.000	29193.000
1397.000	26676.000
1398.000	24733.000
1399.000	22779.000
1400.000	21522.000
1401.000	20365.000
1402.000	19235.000
1403.000	18704.000
1404.000	18153.000
1405.000	17766.000
1406.000	17470.000
1407.000	17038.000
1408.000	16916.000
1409.000	16993.000
1410.000	16476.000
1411.000	16732.000
1412.000	16699.000
1413.000	16362.000
1414.000	16574.000
1415.000	16516.000
1416.000	16668.000
1417.000	16650.000
1418.000	16792.000
1419.000	16380.000
1420.000	16315.000
1421.000	16473.000
1422.000	16804.000
1423.000	16540.000
1424.000	16620.000
1425.000	16677.000
1426.000	16567.000
1427.000	16693.000
1428.000	16744.000
1429.000	16595.000
1430.000	16670.000
1431.000	16736.000
1432.000	16626.000
1433.000	16689.000
1434.000	16730.000
1435.000	16653.000
1436.000	16908.000
1437.000	16532.000
1438.000	16784.000
1439.000	17032.000
1440.000	16940.000
1441.000	16788.000
1442.000	17041.000
1443.000	16659.000
1444.000	17348.000
1445.000	17350.000
1446.000	16988.000
1447.000	17237.000
1448.000	17388.000
1449.000	17427.000
1450.000	17502.000
1451.000	17692.000
1452.000	17494.000
1453.000	17571.000
1454.000	17583.000
1455.000	17620.000
1456.000	17499.000
1457.000	17579.000
1458.000	17969.000
1459.000	17944.000
1460.000	17788.000
1461.000	17891.000
1462.000	17697.000
1463.000	17743.000
1464.000	17512.000
1465.000	17720.000
1466.000	17662.000
1467.000	17467.000
1468.000	17556.000
1469.000	17439.000
1470.000	17596.000
1471.000	17230.000
1472.000	17222.000
1473.000	17226.000
1474.000	17188.000
1475.000	17191.000
1476.000	17191.000
1477.000	17324.000
1478.000	17189.000
1479.000	17142.000
1480.000	17072.000
1481.000	17196.000
1482.000	17043.000
1483.000	17310.000
1484.000	17190.000
1485.000	17134.000
1486.000	17213.000
1487.000	16848.000
1488.000	17386.000
1489.000	17450.000
1490.000	17394.000
1491.000	17192.000
1492.000	17364.000
1493.000	17227.000
1494.000	17608.000
1495.000	17323.000
1496.000	17545.000
1497.000	17248.000
1498.000	17429.000
1499.000	17610.000
1500.000	17422.000
1501.000	17599.000
1502.000	17554.000
1503.000	17341.000
1504.000	17544.000
1505.000	17899.000
1506.000	17742.000
1507.000	17868.000
1508.000	17732.000
1509.000	17865.000
1510.000	17873.000
1511.000	18176.000
1512.000	17755.000
1513.000	18022.000
1514.000	17851.000
1515.000	18313.000
1516.000	18626.000
1517.000	18531.000
1518.000	18564.000
1519.000	19023.000
1520.000	19244.000
1521.000	19102.000
1522.000	19526.000
1523.000	19912.000
1524.000	19989.000
1525.000	20315.000
1526.000	20778.000
1527.000	21420.000
1528.000	21920.000
1529.000	22711.000
1530.000	23417.000
1531.000	24155.000
1532.000	24746.000
1533.000	25836.000
1534.000	26553.000
1535.000	27105.000
1536.000	28322.000
1537.000	29464.000
1538.000	30216.000
1539.000	30840.000
1540.000	31954.000
1541.000	32352.000
1542.000	32611.000
1543.000	33249.000
1544.000	33078.000
1545.000	33443.000
1546.000	32755.000
1547.000	33031.000
1548.000	32375.000
1549.000	31789.000
1550.000	31190.000
1551.000	30598.000
1552.000	29826.000
1553.000	29230.000
1554.000	28561.000
1555.000	28247.000
1556.000	27592.000
1557.000	27259.000
1558.000	26841.000
1559.000	26391.000
1560.000	26242.000
1561.000	26252.000
1562.000	26176.000
1563.000	26881.000
1564.000	26620.000
1565.000	27183.000
1566.000	27651.000
1567.000	27846.000
1568.000	28356.000
1569.000	28724.000
1570.000	29320.000
1571.000	29590.000
1572.000	30308.000
1573.000	31047.000
1574.000	31725.000
1575.000	32382.000
1576.000	32499.000
1577.000	33629.000
1578.000	34590.000
1579.000	35471.000
1580.000	36180.000
1581.000	36850.000
1582.000	38102.000
1583.000	38915.000
1584.000	40120.000
1585.000	40977.000
1586.000	41979.000
1587.000	43193.000
1588.000	44277.000
1589.000	45629.000
1590.000	46945.000
1591.000	48055.000
1592.000	49126.000
1593.000	50071.000
1594.000	50982.000
1595.000	51981.000
1596.000	53341.000
1597.000	54023.000
1598.000	54962.000
1599.000	55838.000
1600.000	56392.000
1601.000	56713.000
1602.000	57827.000
1603.000	58255.000
1604.000	59119.000
1605.000	59037.000
1606.000	59365.000
1607.000	59676.000
1608.000	59609.000
1609.000	59711.000
1610.000	59257.000
1611.000	59055.000
1612.000	58845.000
1613.000	58343.000
1614.000	58183.000
1615.000	57423.000
1616.000	56811.000
1617.000	56335.000
1618.000	55239.000
1619.000	54826.000
1620.000	53753.000
1621.000	53105.000
1622.000	52018.000
1623.000	50845.000
1624.000	49632.000
1625.000	48716.000
1626.000	47510.000
1627.000	46366.000
1628.000	45035.000
1629.000	43852.000
1630.000	42992.000
1631.000	41992.000
1632.000	40422.000
1633.000	39609.000
1634.000	38469.000
1635.000	37492.000
1636.000	36419.000
1637.000	34766.000
1638.000	34145.000
1639.000	33314.000
1640.000	32013.000
1641.000	31375.000
1642.000	30253.000
1643.000	29526.000
1644.000	29052.000
1645.000	27929.000
1646.000	27461.000
1647.000	26290.000
1648.000	25626.000
1649.000	24862.000
1650.000	24643.000
1651.000	24219.000
1652.000	23421.000
1653.000	22917.000
1654.000	22215.000
1655.000	21785.000
1656.000	21336.000
1657.000	21126.000
1658.000	20535.000
1659.000	20148.000
1660.000	19908.000
1661.000	19634.000
1662.000	19062.000
1663.000	18693.000
1664.000	18507.000
1665.000	18474.000
1666.000	18275.000
1667.000	17909.000
1668.000	18084.000
1669.000	17769.000
1670.000	17611.000
1671.000	17690.000
1672.000	17843.000
1673.000	17909.000
1674.000	17977.000
1675.000	18462.000
1676.000	18447.000
1677.000	18965.000
1678.000	19394.000
1679.000	20160.000
1680.000	20989.000
1681.000	22090.000
1682.000	23239.000
1683.000	23756.000
1684.000	25718.000
1685.000	26961.000
1686.000	29121.000
1687.000	30649.000
1688.000	33040.000
1689.000	34783.000
1690.000	36433.000
1691.000	38770.000
1692.000	41074.000
1693.000	42923.000
1694.000	44789.000
1695.000	46836.000
1696.000	48206.000
1697.000	49357.000
1698.000	51512.000
1699.000	52102.000
1700.000	52776.000
1701.000	53283.000
1702.000	53047.000
1703.000	53364.000
1704.000	52366.000
1705.000	51234.000
1706.000	50153.000
1707.000	48305.000
1708.000	46646.000
1709.000	44129.000
1710.000	42330.000
1711.000	40008.000
1712.000	37145.000
1713.000	34923.000
1714.000	32814.000
1715.000	30279.000
1716.000	28094.000
1717.000	26198.000
1718.000	24320.000
1719.000	22609.000
1720.000	20881.000
1721.000	19557.000
1722.000	18287.000
1723.000	17897.000
1724.000	16848.000
1725.000	16318.000
1726.000	15814.000
1727.000	15305.000
1728.000	14950.000
1729.000	14377.000
1730.000	14377.000
1731.000	14119.000
1732.000	14078.000
1733.000	13967.000
1734.000	13806.000
1735.000	13836.000
1736.000	13761.000
1737.000	13853.000
1738.000	13603.000
1739.000	13954.000
1740.000	13718.000
1741.000	13585.000
1742.000	13804.000
1743.000	13736.000
1744.000	13765.000
1745.000	13664.000
1746.000	13625.000
1747.000	13866.000
1748.000	13938.000
1749.000	13908.000
1750.000	14326.000
1751.000	14236.000
1752.000	14009.000
1753.000	14295.000
1754.000	14401.000
1755.000	14464.000
1756.000	14639.000
1757.000	14825.000
1758.000	14812.000
1759.000	14748.000
1760.000	15068.000
1761.000	14943.000
1762.000	15246.000
1763.000	15628.000
1764.000	15328.000
1765.000	15628.000
1766.000	15779.000
1767.000	15985.000
1768.000	16022.000
1769.000	16145.000
1770.000	16067.000
1771.000	16615.000
1772.000	16729.000
1773.000	16693.000
1774.000	16988.000
1775.000	17158.000
1776.000	17396.000
1777.000	17497.000
1778.000	17635.000
1779.000	17755.000
1780.000	18121.000
1781.000	18021.000
1782.000	18510.000
1783.000	18508.000
1784.000	18619.000
1785.000	18709.000
1786.000	18867.000
1787.000	18960.000
1788.000	18811.000
1789.000	19149.000
1790.000	19084.000
1791.000	19140.000
1792.000	18779.000
1793.000	18991.000
1794.000	18958.000
1795.000	19132.000
1796.000	18961.000
1797.000	19034.000
1798.000	19000.000
1799.000	19160.000
1800.000	18947.000
1801.000	18875.000
1802.000	18647.000
1803.000	18437.000
1804.000	18490.000
1805.000	18113.000
1806.000	17962.000
1807.000	18049.000
1808.000	17821.000
1809.000	17483.000
1810.000	17235.000
1811.000	16927.000
1812.000	17195.000
1813.000	16757.000
1814.000	16506.000
1815.000	16534.000
1816.000	15954.000
1817.000	16065.000
1818.000	15600.000
1819.000	15236.000
1820.000	15268.000
1821.000	15107.000
1822.000	14648.000
1823.000	14391.000
1824.000	14168.000
1825.000	14157.000
1826.000	13575.000
1827.000	13441.000
1828.000	13353.000
1829.000	13217.000
1830.000	12920.000
1831.000	12776.000
1832.000	12606.000
1833.000	12299.000
1834.000	12227.000
1835.000	12058.000
1836.000	11754.000
1837.000	11608.000
1838.000	11541.000
1839.000	11067.000
1840.000	10994.000
1841.000	10902.000
1842.000	10716.000
1843.000	10589.000
1844.000	10324.000
1845.000	10339.000
1846.000	10214.000
1847.000	10111.000
1848.000	9873.000
1849.000	9848.000
1850.000	9636.000
1851.000	9600.000
1852.000	9510.000
1853.000	9174.000
1854.000	9188.000
1855.000	9141.000
1856.000	9041.000
1857.000	8742.000
1858.000	8687.000
1859.000	8536.000
1860.000	8351.000
1861.000	8535.000
1862.000	8310.000
1863.000	8261.000
1864.000	8421.000
1865.000	8284.000
1866.000	8108.000
1867.000	8141.000
1868.000	7873.000
1869.000	7931.000
1870.000	7753.000
1871.000	7715.000
1872.000	7684.000
1873.000	7747.000
1874.000	7436.000
1875.000	7536.000
1876.000	7400.000
1877.000	7548.000
1878.000	7473.000
1879.000	7451.000
1880.000	7445.000
1881.000	7337.000
1882.000	7325.000
1883.000	7275.000
1884.000	7212.000
1885.000	7274.000
1886.000	7195.000
1887.000	7220.000
1888.000	7321.000
1889.000	7514.000
1890.000	7615.000
1891.000	7539.000
1892.000	7563.000
1893.000	7790.000
1894.000	7974.000
1895.000	8082.000
1896.000	8265.000
1897.000	8748.000
1898.000	8884.000
1899.000	9038.000
1900.000	9336.000
1901.000	9741.000
1902.000	10122.000
1903.000	10413.000
1904.000	10806.000
1905.000	10897.000
1906.000	11204.000
1907.000	11526.000
1908.000	11872.000
1909.000	11960.000
1910.000	11853.000
1911.000	12080.000
1912.000	11847.000
1913.000	11814.000
1914.000	11635.000
1915.000	11633.000
1916.000	11338.000
1917.000	10773.000
1918.000	10562.000
1919.000	10393.000
1920.000	10147.000
1921.000	9470.000
1922.000	9262.000
1923.000	8882.000
1924.000	8759.000
1925.000	8331.000
1926.000	7928.000
1927.000	7817.000
1928.000	7462.000
1929.000	7256.000
1930.000	7163.000
1931.000	6950.000
1932.000	6862.000
1933.000	6801.000
1934.000	6836.000
1935.000	6844.000
1936.000	6692.000
1937.000	6649.000
1938.000	6708.000
1939.000	6548.000
1940.000	6740.000
1941.000	6532.000
1942.000	6633.000
1943.000	6557.000
1944.000	6678.000
1945.000	6551.000
1946.000	6552.000
1947.000	6520.000
1948.000	6341.000
1949.000	6338.000
1950.000	6395.000
1951.000	6165.000
1952.000	6086.000
1953.000	6246.000
1954.000	6015.000
1955.000	6002.000
1956.000	5890.000
1957.000	5703.000
1958.000	5630.000
1959.000	5606.000
1960.000	5536.000
1961.000	5496.000
1962.000	5574.000
1963.000	5441.000
1964.000	5217.000
1965.000	5286.000
1966.000	5320.000
1967.000	5133.000
1968.000	5200.000
1969.000	5025.000
1970.000	5061.000
1971.000	5030.000
1972.000	5160.000
1973.000	5038.000
1974.000	5110.000
1975.000	5062.000
1976.000	4980.000
1977.000	4979.000
1978.000	5163.000
1979.000	4934.000
1980.000	4923.000
1981.000	5132.000
1982.000	5088.000
1983.000	4956.000
1984.000	4924.000
1985.000	5139.000
1986.000	4945.000
1987.000	4923.000
1988.000	5011.000
1989.000	4922.000
1990.000	5046.000
1991.000	4982.000
1992.000	4950.000
1993.000	4894.000
1994.000	4828.000
1995.000	4953.000
1996.000	4898.000
1997.000	5009.000
1998.000	4703.000
1999.000	4730.000
2000.000	4802.000
2001.000	4887.000
2002.000	4884.000
2003.000	4788.000
2004.000	4883.000
2005.000	4914.000
2006.000	4845.000
2007.000	4867.000
2008.000	4879.000
2009.000	4906.000
2010.000	4875.000
2011.000	4943.000
2012.000	4835.000
2013.000	4780.000
2014.000	4774.000
2015.000	4758.000
2016.000	4801.000
2017.000	4781.000
2018.000	4682.000
2019.000	4800.000
2020.000	4724.000
2021.000	4644.000
2022.000	4724.000
2023.000	4616.000
2024.000	4651.000
2025.000	4779.000
2026.000	4801.000
2027.000	4812.000
2028.000	4731.000
2029.000	4682.000
2030.000	4593.000
2031.000	4583.000
2032.000	4692.000
2033.000	4505.000
2034.000	4652.000
2035.000	4611.000
2036.000	4480.000
2037.000	4502.000
2038.000	4567.000
2039.000	4581.000
2040.000	4596.000
2041.000	4572.000
2042.000	4573.000
2043.000	4538.000
2044.000	4420.000
2045.000	4583.000
2046.000	4593.000
2047.000	4492.000
2048.000	0.000
