Date:	17-Sep-20		Time:	11:47 PM		Version no:	0.00		Project name:	55		Sample name:	222		Section name:	section		Position	0.000000	mm	E0	0.000000	keV	E1	1.000000	keV/channel	sample surface	2.000000	cm	Tube anode:	Mo		Tube voltage:	30	kV	Tube current:	30	mA	gain	15		std. database			resultfile	result		matrix element	11		sample thickness	1.000000		air passage	0.560000	cm	comments	not in position		peaking_time	0.300000	m-sec	trigger_threshold	40.000000	V	mca_bin_width	2.000000	no:	number_mca_channels	2048.000000	no:	gap_time	2048.000000	m-sec	trigger_peaking_time	2048.000000	m-sec	GAINDAC	400		HIGHGAIN	400		TAURC	400		RCTAU	400		RCTAUFRAC	400		livetime	13.014294	seconds	runtime	15.000232	seconds	input_count_rate	80431.410221	cps	output_count_rate	69782.785033	cps	triggers	1173264	seconds	events_in_run	1020480	seconds	channel	content		1.000	0.000
2.000	0.000
3.000	0.000
4.000	0.000
5.000	0.000
6.000	0.000
7.000	0.000
8.000	0.000
9.000	0.000
10.000	0.000
11.000	0.000
12.000	0.000
13.000	0.000
14.000	0.000
15.000	0.000
16.000	0.000
17.000	0.000
18.000	0.000
19.000	0.000
20.000	0.000
21.000	0.000
22.000	0.000
23.000	0.000
24.000	0.000
25.000	0.000
26.000	0.000
27.000	0.000
28.000	0.000
29.000	0.000
30.000	0.000
31.000	468.000
32.000	502.000
33.000	462.000
34.000	488.000
35.000	506.000
36.000	463.000
37.000	439.000
38.000	460.000
39.000	499.000
40.000	471.000
41.000	502.000
42.000	462.000
43.000	476.000
44.000	521.000
45.000	533.000
46.000	630.000
47.000	694.000
48.000	818.000
49.000	1069.000
50.000	1523.000
51.000	2145.000
52.000	3011.000
53.000	4086.000
54.000	5436.000
55.000	6941.000
56.000	9639.000
57.000	13442.000
58.000	19041.000
59.000	26847.000
60.000	33681.000
61.000	39126.000
62.000	43154.000
63.000	44814.000
64.000	44750.000
65.000	43324.000
66.000	41633.000
67.000	40223.000
68.000	38912.000
69.000	38209.000
70.000	37616.000
71.000	37513.000
72.000	37098.000
73.000	36778.000
74.000	36634.000
75.000	36355.000
76.000	35827.000
77.000	35788.000
78.000	35519.000
79.000	35827.000
80.000	35742.000
81.000	35714.000
82.000	36682.000
83.000	36846.000
84.000	36502.000
85.000	36924.000
86.000	36713.000
87.000	36699.000
88.000	35953.000
89.000	34921.000
90.000	34671.000
91.000	33453.000
92.000	32732.000
93.000	32540.000
94.000	32112.000
95.000	31610.000
96.000	31261.000
97.000	31274.000
98.000	30758.000
99.000	30401.000
100.000	30220.000
101.000	30131.000
102.000	29578.000
103.000	29680.000
104.000	29568.000
105.000	29037.000
106.000	28664.000
107.000	28184.000
108.000	27913.000
109.000	27777.000
110.000	27609.000
111.000	26972.000
112.000	26755.000
113.000	26464.000
114.000	26471.000
115.000	26544.000
116.000	26497.000
117.000	26507.000
118.000	26248.000
119.000	26221.000
120.000	25999.000
121.000	25991.000
122.000	25218.000
123.000	24735.000
124.000	24182.000
125.000	23938.000
126.000	23592.000
127.000	23300.000
128.000	22743.000
129.000	22625.000
130.000	22687.000
131.000	22544.000
132.000	22224.000
133.000	22117.000
134.000	22032.000
135.000	22083.000
136.000	22281.000
137.000	22627.000
138.000	23012.000
139.000	24801.000
140.000	26790.000
141.000	29620.000
142.000	32817.000
143.000	35852.000
144.000	39422.000
145.000	41218.000
146.000	41427.000
147.000	40748.000
148.000	38944.000
149.000	36733.000
150.000	34415.000
151.000	32689.000
152.000	31293.000
153.000	30515.000
154.000	29599.000
155.000	28659.000
156.000	26805.000
157.000	25130.000
158.000	23640.000
159.000	22352.000
160.000	21845.000
161.000	22302.000
162.000	24770.000
163.000	29549.000
164.000	37983.000
165.000	49715.000
166.000	65460.000
167.000	83598.000
168.000	101431.000
169.000	116478.000
170.000	126109.000
171.000	128331.000
172.000	121585.000
173.000	109040.000
174.000	93666.000
175.000	77792.000
176.000	63215.000
177.000	53189.000
178.000	46918.000
179.000	43987.000
180.000	44185.000
181.000	46672.000
182.000	53492.000
183.000	63408.000
184.000	79538.000
185.000	102529.000
186.000	132668.000
187.000	169428.000
188.000	205590.000
189.000	238802.000
190.000	261410.000
191.000	269850.000
192.000	259662.000
193.000	234819.000
194.000	200355.000
195.000	161385.000
196.000	123599.000
197.000	91152.000
198.000	65955.000
199.000	47849.000
200.000	35916.000
201.000	28833.000
202.000	24481.000
203.000	22585.000
204.000	21369.000
205.000	21042.000
206.000	20446.000
207.000	20851.000
208.000	21026.000
209.000	21195.000
210.000	21580.000
211.000	22052.000
212.000	22971.000
213.000	23836.000
214.000	25062.000
215.000	26734.000
216.000	29561.000
217.000	33259.000
218.000	37872.000
219.000	42792.000
220.000	47897.000
221.000	52244.000
222.000	55266.000
223.000	56515.000
224.000	55749.000
225.000	53176.000
226.000	49236.000
227.000	44315.000
228.000	38984.000
229.000	34097.000
230.000	29771.000
231.000	25852.000
232.000	22936.000
233.000	21105.000
234.000	19191.000
235.000	18477.000
236.000	18062.000
237.000	17776.000
238.000	17704.000
239.000	17675.000
240.000	17782.000
241.000	18097.000
242.000	18161.000
243.000	18724.000
244.000	19749.000
245.000	20948.000
246.000	23930.000
247.000	28269.000
248.000	35528.000
249.000	46278.000
250.000	61331.000
251.000	81754.000
252.000	105675.000
253.000	132991.000
254.000	160144.000
255.000	182448.000
256.000	199098.000
257.000	204305.000
258.000	199420.000
259.000	184787.000
260.000	162276.000
261.000	135484.000
262.000	108856.000
263.000	84612.000
264.000	64488.000
265.000	49498.000
266.000	39563.000
267.000	33832.000
268.000	31476.000
269.000	30892.000
270.000	32496.000
271.000	34331.000
272.000	36724.000
273.000	38995.000
274.000	40615.000
275.000	41557.000
276.000	41795.000
277.000	41212.000
278.000	40265.000
279.000	39198.000
280.000	39331.000
281.000	40500.000
282.000	43985.000
283.000	50328.000
284.000	58282.000
285.000	69449.000
286.000	81869.000
287.000	92749.000
288.000	102223.000
289.000	108244.000
290.000	110340.000
291.000	107578.000
292.000	100534.000
293.000	89248.000
294.000	77152.000
295.000	65285.000
296.000	53257.000
297.000	44343.000
298.000	37462.000
299.000	32362.000
300.000	29098.000
301.000	27760.000
302.000	26997.000
303.000	27517.000
304.000	28097.000
305.000	29665.000
306.000	31561.000
307.000	33508.000
308.000	36248.000
309.000	39160.000
310.000	43121.000
311.000	48334.000
312.000	55763.000
313.000	66589.000
314.000	82597.000
315.000	106595.000
316.000	142359.000
317.000	190622.000
318.000	252994.000
319.000	328705.000
320.000	412374.000
321.000	497701.000
322.000	575007.000
323.000	634008.000
324.000	668273.000
325.000	669385.000
326.000	640127.000
327.000	581012.000
328.000	504884.000
329.000	418117.000
330.000	329798.000
331.000	252387.000
332.000	185915.000
333.000	133563.000
334.000	96154.000
335.000	71443.000
336.000	56984.000
337.000	49290.000
338.000	47620.000
339.000	49755.000
340.000	55271.000
341.000	64999.000
342.000	78961.000
343.000	99819.000
344.000	130131.000
345.000	176109.000
346.000	249841.000
347.000	364003.000
348.000	550953.000
349.000	846815.000
350.000	1306650.000
351.000	2008049.000
352.000	3024064.000
353.000	4423608.000
354.000	6259505.000
355.000	8522131.000
356.000	11152234.000
357.000	13942147.000
358.000	16660064.000
359.000	19032776.000
360.000	20782433.000
361.000	21613168.000
362.000	21473743.000
363.000	20352238.000
364.000	18426765.000
365.000	15880565.000
366.000	13075236.000
367.000	10280779.000
368.000	7726948.000
369.000	5538472.000
370.000	3812199.000
371.000	2511590.000
372.000	1599235.000
373.000	987704.000
374.000	604434.000
375.000	378246.000
376.000	254689.000
377.000	196511.000
378.000	180348.000
379.000	194537.000
380.000	232053.000
381.000	299519.000
382.000	399376.000
383.000	539734.000
384.000	731402.000
385.000	978641.000
386.000	1282039.000
387.000	1634904.000
388.000	2014656.000
389.000	2397364.000
390.000	2748405.000
391.000	3023022.000
392.000	3190222.000
393.000	3230969.000
394.000	3139652.000
395.000	2918101.000
396.000	2593716.000
397.000	2211018.000
398.000	1811073.000
399.000	1421710.000
400.000	1067621.000
401.000	771383.000
402.000	535136.000
403.000	359004.000
404.000	233362.000
405.000	147355.000
406.000	92376.000
407.000	58329.000
408.000	37867.000
409.000	26054.000
410.000	19682.000
411.000	16031.000
412.000	14085.000
413.000	13237.000
414.000	12394.000
415.000	12569.000
416.000	12020.000
417.000	12302.000
418.000	12523.000
419.000	12509.000
420.000	12977.000
421.000	13416.000
422.000	13833.000
423.000	14808.000
424.000	16316.000
425.000	18906.000
426.000	22404.000
427.000	28736.000
428.000	38193.000
429.000	52544.000
430.000	73309.000
431.000	102492.000
432.000	141246.000
433.000	191949.000
434.000	250835.000
435.000	319945.000
436.000	396955.000
437.000	471141.000
438.000	537779.000
439.000	594169.000
440.000	629903.000
441.000	643833.000
442.000	633381.000
443.000	600264.000
444.000	546128.000
445.000	480765.000
446.000	407618.000
447.000	336014.000
448.000	269894.000
449.000	214991.000
450.000	169946.000
451.000	134877.000
452.000	111645.000
453.000	95692.000
454.000	83994.000
455.000	76108.000
456.000	69625.000
457.000	64645.000
458.000	59550.000
459.000	53877.000
460.000	48353.000
461.000	43278.000
462.000	38781.000
463.000	35532.000
464.000	32901.000
465.000	31936.000
466.000	32021.000
467.000	32703.000
468.000	34255.000
469.000	36959.000
470.000	40696.000
471.000	45063.000
472.000	50552.000
473.000	57490.000
474.000	65365.000
475.000	74264.000
476.000	85798.000
477.000	95979.000
478.000	106615.000
479.000	117643.000
480.000	126931.000
481.000	133164.000
482.000	135968.000
483.000	135289.000
484.000	131549.000
485.000	124201.000
486.000	113482.000
487.000	101911.000
488.000	88333.000
489.000	76243.000
490.000	64667.000
491.000	55118.000
492.000	46409.000
493.000	40403.000
494.000	35393.000
495.000	31780.000
496.000	29891.000
497.000	28757.000
498.000	27778.000
499.000	27741.000
500.000	28070.000
501.000	28583.000
502.000	29459.000
503.000	30221.000
504.000	30686.000
505.000	31701.000
506.000	32459.000
507.000	33826.000
508.000	34692.000
509.000	35771.000
510.000	37289.000
511.000	38066.000
512.000	39446.000
513.000	40829.000
514.000	41505.000
515.000	43078.000
516.000	44316.000
517.000	46021.000
518.000	48391.000
519.000	50487.000
520.000	53266.000
521.000	56002.000
522.000	60502.000
523.000	63751.000
524.000	68259.000
525.000	72613.000
526.000	76263.000
527.000	80034.000
528.000	80939.000
529.000	81575.000
530.000	80773.000
531.000	78606.000
532.000	74337.000
533.000	69774.000
534.000	64826.000
535.000	60317.000
536.000	55180.000
537.000	51162.000
538.000	46826.000
539.000	44052.000
540.000	41327.000
541.000	39457.000
542.000	38696.000
543.000	38005.000
544.000	37665.000
545.000	37163.000
546.000	37042.000
547.000	37823.000
548.000	37961.000
549.000	38014.000
550.000	38229.000
551.000	39243.000
552.000	39588.000
553.000	40317.000
554.000	41020.000
555.000	41725.000
556.000	42995.000
557.000	44116.000
558.000	45416.000
559.000	47514.000
560.000	50125.000
561.000	54227.000
562.000	58729.000
563.000	65489.000
564.000	75250.000
565.000	87215.000
566.000	102627.000
567.000	121609.000
568.000	145230.000
569.000	171717.000
570.000	201699.000
571.000	231953.000
572.000	262361.000
573.000	289224.000
574.000	310365.000
575.000	325817.000
576.000	331722.000
577.000	327318.000
578.000	316945.000
579.000	298405.000
580.000	273689.000
581.000	243531.000
582.000	213756.000
583.000	183529.000
584.000	156592.000
585.000	131459.000
586.000	110301.000
587.000	94005.000
588.000	80648.000
589.000	71215.000
590.000	64915.000
591.000	60733.000
592.000	57776.000
593.000	56766.000
594.000	56402.000
595.000	57294.000
596.000	58497.000
597.000	59096.000
598.000	61874.000
599.000	63982.000
600.000	66952.000
601.000	71350.000
602.000	76106.000
603.000	83025.000
604.000	94165.000
605.000	111127.000
606.000	135238.000
607.000	174805.000
608.000	233642.000
609.000	323153.000
610.000	457479.000
611.000	652994.000
612.000	927991.000
613.000	1303312.000
614.000	1807253.000
615.000	2451387.000
616.000	3239708.000
617.000	4178566.000
618.000	5253248.000
619.000	6422846.000
620.000	7617864.000
621.000	8779433.000
622.000	9838049.000
623.000	10689496.000
624.000	11275340.000
625.000	11549460.000
626.000	11489971.000
627.000	11092345.000
628.000	10372127.000
629.000	9433206.000
630.000	8332203.000
631.000	7138227.000
632.000	5941080.000
633.000	4811010.000
634.000	3792080.000
635.000	2898622.000
636.000	2169654.000
637.000	1588065.000
638.000	1140536.000
639.000	806147.000
640.000	565628.000
641.000	400705.000
642.000	287746.000
643.000	213262.000
644.000	166097.000
645.000	136798.000
646.000	118038.000
647.000	107024.000
648.000	100484.000
649.000	95862.000
650.000	93865.000
651.000	92446.000
652.000	91676.000
653.000	91517.000
654.000	91710.000
655.000	92746.000
656.000	92917.000
657.000	93667.000
658.000	95924.000
659.000	96797.000
660.000	97415.000
661.000	99705.000
662.000	102655.000
663.000	105139.000
664.000	108036.000
665.000	111650.000
666.000	115606.000
667.000	120503.000
668.000	127101.000
669.000	134006.000
670.000	144118.000
671.000	158113.000
672.000	174894.000
673.000	198432.000
674.000	229032.000
675.000	271085.000
676.000	325890.000
677.000	395214.000
678.000	484282.000
679.000	592600.000
680.000	721819.000
681.000	870616.000
682.000	1033487.000
683.000	1205860.000
684.000	1378223.000
685.000	1543430.000
686.000	1686832.000
687.000	1800637.000
688.000	1879072.000
689.000	1904302.000
690.000	1889225.000
691.000	1821994.000
692.000	1717965.000
693.000	1576225.000
694.000	1410403.000
695.000	1231812.000
696.000	1053767.000
697.000	879678.000
698.000	720913.000
699.000	581116.000
700.000	462827.000
701.000	365234.000
702.000	286885.000
703.000	227537.000
704.000	182776.000
705.000	150616.000
706.000	127424.000
707.000	111586.000
708.000	102399.000
709.000	96069.000
710.000	93442.000
711.000	91792.000
712.000	92017.000
713.000	93004.000
714.000	95141.000
715.000	98143.000
716.000	100736.000
717.000	103646.000
718.000	108561.000
719.000	112629.000
720.000	116105.000
721.000	120997.000
722.000	124802.000
723.000	129280.000
724.000	132744.000
725.000	136534.000
726.000	139161.000
727.000	141303.000
728.000	142408.000
729.000	142491.000
730.000	141276.000
731.000	140303.000
732.000	138187.000
733.000	134971.000
734.000	130752.000
735.000	126775.000
736.000	122273.000
737.000	118731.000
738.000	115710.000
739.000	112257.000
740.000	109188.000
741.000	107002.000
742.000	105068.000
743.000	104036.000
744.000	103526.000
745.000	103618.000
746.000	102983.000
747.000	102823.000
748.000	103473.000
749.000	103741.000
750.000	103888.000
751.000	104450.000
752.000	104288.000
753.000	104858.000
754.000	105122.000
755.000	105399.000
756.000	105099.000
757.000	105981.000
758.000	106435.000
759.000	106744.000
760.000	107139.000
761.000	108096.000
762.000	109055.000
763.000	109187.000
764.000	110326.000
765.000	111616.000
766.000	112617.000
767.000	114722.000
768.000	115848.000
769.000	117552.000
770.000	119785.000
771.000	122553.000
772.000	124449.000
773.000	128222.000
774.000	131824.000
775.000	135308.000
776.000	141140.000
777.000	145339.000
778.000	151313.000
779.000	156453.000
780.000	163155.000
781.000	169969.000
782.000	174641.000
783.000	180905.000
784.000	187233.000
785.000	192827.000
786.000	196028.000
787.000	199617.000
788.000	203711.000
789.000	207147.000
790.000	208883.000
791.000	210479.000
792.000	213084.000
793.000	212924.000
794.000	215049.000
795.000	215547.000
796.000	216240.000
797.000	216555.000
798.000	216725.000
799.000	218073.000
800.000	218294.000
801.000	219924.000
802.000	221883.000
803.000	224228.000
804.000	229148.000
805.000	233943.000
806.000	240373.000
807.000	249108.000
808.000	261017.000
809.000	274304.000
810.000	291802.000
811.000	309007.000
812.000	330216.000
813.000	353793.000
814.000	375537.000
815.000	395802.000
816.000	413538.000
817.000	425160.000
818.000	436559.000
819.000	443844.000
820.000	441932.000
821.000	435899.000
822.000	423553.000
823.000	406707.000
824.000	383395.000
825.000	361556.000
826.000	336462.000
827.000	311319.000
828.000	288024.000
829.000	265556.000
830.000	247865.000
831.000	232490.000
832.000	219737.000
833.000	210836.000
834.000	205190.000
835.000	202326.000
836.000	201051.000
837.000	200846.000
838.000	202602.000
839.000	204742.000
840.000	206215.000
841.000	208032.000
842.000	209223.000
843.000	210394.000
844.000	209489.000
845.000	207706.000
846.000	206272.000
847.000	203257.000
848.000	200472.000
849.000	196718.000
850.000	193052.000
851.000	189133.000
852.000	186286.000
853.000	182389.000
854.000	180615.000
855.000	178683.000
856.000	176406.000
857.000	174795.000
858.000	174302.000
859.000	173650.000
860.000	173322.000
861.000	173426.000
862.000	174570.000
863.000	174141.000
864.000	173609.000
865.000	174817.000
866.000	175304.000
867.000	175137.000
868.000	174680.000
869.000	175743.000
870.000	176228.000
871.000	176745.000
872.000	176049.000
873.000	176175.000
874.000	176357.000
875.000	176624.000
876.000	176035.000
877.000	176023.000
878.000	175852.000
879.000	176350.000
880.000	176423.000
881.000	176911.000
882.000	177125.000
883.000	177523.000
884.000	178977.000
885.000	179728.000
886.000	180862.000
887.000	182190.000
888.000	184015.000
889.000	186105.000
890.000	187132.000
891.000	189737.000
892.000	192471.000
893.000	196005.000
894.000	198621.000
895.000	201004.000
896.000	205096.000
897.000	209415.000
898.000	212877.000
899.000	215987.000
900.000	220864.000
901.000	223930.000
902.000	226781.000
903.000	230623.000
904.000	233551.000
905.000	236443.000
906.000	238811.000
907.000	242855.000
908.000	245282.000
909.000	246346.000
910.000	247948.000
911.000	251439.000
912.000	253576.000
913.000	254761.000
914.000	255575.000
915.000	258015.000
916.000	258829.000
917.000	260043.000
918.000	262474.000
919.000	263828.000
920.000	265668.000
921.000	266851.000
922.000	269436.000
923.000	271686.000
924.000	274082.000
925.000	276952.000
926.000	278425.000
927.000	283683.000
928.000	286685.000
929.000	291491.000
930.000	296646.000
931.000	302675.000
932.000	308996.000
933.000	316124.000
934.000	323082.000
935.000	331923.000
936.000	342021.000
937.000	351598.000
938.000	361583.000
939.000	370126.000
940.000	377034.000
941.000	385359.000
942.000	389437.000
943.000	391868.000
944.000	390226.000
945.000	388933.000
946.000	382781.000
947.000	376790.000
948.000	366026.000
949.000	355314.000
950.000	343180.000
951.000	332106.000
952.000	318718.000
953.000	309393.000
954.000	299253.000
955.000	289834.000
956.000	282851.000
957.000	275816.000
958.000	270745.000
959.000	267985.000
960.000	264928.000
961.000	264298.000
962.000	263626.000
963.000	263951.000
964.000	265401.000
965.000	267437.000
966.000	270297.000
967.000	271915.000
968.000	274302.000
969.000	276159.000
970.000	277539.000
971.000	276931.000
972.000	277085.000
973.000	277545.000
974.000	275417.000
975.000	271804.000
976.000	268024.000
977.000	264930.000
978.000	260244.000
979.000	254316.000
980.000	249682.000
981.000	245846.000
982.000	241238.000
983.000	237515.000
984.000	233036.000
985.000	229716.000
986.000	226570.000
987.000	223073.000
988.000	221962.000
989.000	220595.000
990.000	217789.000
991.000	215878.000
992.000	213254.000
993.000	212538.000
994.000	211335.000
995.000	208925.000
996.000	208014.000
997.000	207860.000
998.000	206695.000
999.000	206456.000
1000.000	204712.000
1001.000	204039.000
1002.000	202739.000
1003.000	203650.000
1004.000	203147.000
1005.000	202815.000
1006.000	203390.000
1007.000	202435.000
1008.000	203320.000
1009.000	203167.000
1010.000	203592.000
1011.000	203624.000
1012.000	203814.000
1013.000	204764.000
1014.000	204322.000
1015.000	206008.000
1016.000	206743.000
1017.000	207703.000
1018.000	207175.000
1019.000	208032.000
1020.000	209039.000
1021.000	210051.000
1022.000	211050.000
1023.000	211630.000
1024.000	212088.000
1025.000	212570.000
1026.000	213835.000
1027.000	215060.000
1028.000	215237.000
1029.000	216443.000
1030.000	215627.000
1031.000	216238.000
1032.000	217368.000
1033.000	217117.000
1034.000	217030.000
1035.000	218223.000
1036.000	219155.000
1037.000	217450.000
1038.000	218532.000
1039.000	219684.000
1040.000	219387.000
1041.000	220895.000
1042.000	221322.000
1043.000	221996.000
1044.000	222852.000
1045.000	223728.000
1046.000	225057.000
1047.000	226263.000
1048.000	226883.000
1049.000	227493.000
1050.000	229037.000
1051.000	231174.000
1052.000	231635.000
1053.000	232538.000
1054.000	233054.000
1055.000	234621.000
1056.000	234757.000
1057.000	235793.000
1058.000	236562.000
1059.000	237192.000
1060.000	238183.000
1061.000	237730.000
1062.000	239046.000
1063.000	239119.000
1064.000	239138.000
1065.000	239567.000
1066.000	239693.000
1067.000	239194.000
1068.000	239562.000
1069.000	239665.000
1070.000	239113.000
1071.000	238998.000
1072.000	238386.000
1073.000	238313.000
1074.000	238319.000
1075.000	237987.000
1076.000	237104.000
1077.000	237576.000
1078.000	236966.000
1079.000	236191.000
1080.000	237157.000
1081.000	236415.000
1082.000	236900.000
1083.000	236210.000
1084.000	236803.000
1085.000	237765.000
1086.000	238423.000
1087.000	238638.000
1088.000	240472.000
1089.000	241406.000
1090.000	243401.000
1091.000	244262.000
1092.000	246274.000
1093.000	248163.000
1094.000	250631.000
1095.000	252428.000
1096.000	253984.000
1097.000	255806.000
1098.000	257472.000
1099.000	257503.000
1100.000	259046.000
1101.000	260482.000
1102.000	259658.000
1103.000	259068.000
1104.000	258372.000
1105.000	257519.000
1106.000	256030.000
1107.000	253686.000
1108.000	251624.000
1109.000	250548.000
1110.000	246983.000
1111.000	246367.000
1112.000	245278.000
1113.000	243944.000
1114.000	241239.000
1115.000	242062.000
1116.000	240204.000
1117.000	240812.000
1118.000	239779.000
1119.000	239872.000
1120.000	239013.000
1121.000	239997.000
1122.000	240648.000
1123.000	240350.000
1124.000	240837.000
1125.000	240561.000
1126.000	241315.000
1127.000	241035.000
1128.000	243052.000
1129.000	242324.000
1130.000	243817.000
1131.000	244253.000
1132.000	243474.000
1133.000	245541.000
1134.000	245692.000
1135.000	245175.000
1136.000	246229.000
1137.000	245922.000
1138.000	246300.000
1139.000	246800.000
1140.000	245531.000
1141.000	246926.000
1142.000	245889.000
1143.000	245669.000
1144.000	246939.000
1145.000	246662.000
1146.000	247553.000
1147.000	248676.000
1148.000	250594.000
1149.000	250900.000
1150.000	253478.000
1151.000	256127.000
1152.000	258448.000
1153.000	261263.000
1154.000	264036.000
1155.000	266165.000
1156.000	268869.000
1157.000	271571.000
1158.000	273960.000
1159.000	275892.000
1160.000	278183.000
1161.000	278755.000
1162.000	279038.000
1163.000	278875.000
1164.000	277903.000
1165.000	277611.000
1166.000	273821.000
1167.000	273076.000
1168.000	269277.000
1169.000	266231.000
1170.000	263410.000
1171.000	261098.000
1172.000	258241.000
1173.000	254289.000
1174.000	253370.000
1175.000	250871.000
1176.000	248108.000
1177.000	246477.000
1178.000	245317.000
1179.000	244746.000
1180.000	242938.000
1181.000	242252.000
1182.000	241289.000
1183.000	242476.000
1184.000	240087.000
1185.000	240750.000
1186.000	240650.000
1187.000	240638.000
1188.000	239525.000
1189.000	240538.000
1190.000	239954.000
1191.000	239974.000
1192.000	240501.000
1193.000	241081.000
1194.000	242171.000
1195.000	240184.000
1196.000	241392.000
1197.000	241775.000
1198.000	242343.000
1199.000	242734.000
1200.000	243302.000
1201.000	242835.000
1202.000	243468.000
1203.000	244277.000
1204.000	244223.000
1205.000	245466.000
1206.000	246003.000
1207.000	245450.000
1208.000	246336.000
1209.000	245870.000
1210.000	247573.000
1211.000	247179.000
1212.000	247742.000
1213.000	247744.000
1214.000	248302.000
1215.000	248578.000
1216.000	248276.000
1217.000	250145.000
1218.000	249311.000
1219.000	250211.000
1220.000	250658.000
1221.000	250516.000
1222.000	251951.000
1223.000	251300.000
1224.000	251408.000
1225.000	252771.000
1226.000	252999.000
1227.000	253788.000
1228.000	254359.000
1229.000	254398.000
1230.000	254309.000
1231.000	254484.000
1232.000	254874.000
1233.000	256760.000
1234.000	255294.000
1235.000	254931.000
1236.000	256472.000
1237.000	256441.000
1238.000	256324.000
1239.000	257165.000
1240.000	256994.000
1241.000	256999.000
1242.000	256438.000
1243.000	256757.000
1244.000	257608.000
1245.000	256661.000
1246.000	257126.000
1247.000	257391.000
1248.000	257382.000
1249.000	257637.000
1250.000	257724.000
1251.000	257801.000
1252.000	257513.000
1253.000	256815.000
1254.000	257211.000
1255.000	256851.000
1256.000	256625.000
1257.000	257163.000
1258.000	256178.000
1259.000	256759.000
1260.000	257309.000
1261.000	255746.000
1262.000	255497.000
1263.000	254411.000
1264.000	255374.000
1265.000	254309.000
1266.000	254411.000
1267.000	255778.000
1268.000	254375.000
1269.000	254193.000
1270.000	254420.000
1271.000	254205.000
1272.000	253581.000
1273.000	254053.000
1274.000	253851.000
1275.000	255014.000
1276.000	254552.000
1277.000	254006.000
1278.000	253348.000
1279.000	255537.000
1280.000	254056.000
1281.000	254935.000
1282.000	255755.000
1283.000	257132.000
1284.000	256608.000
1285.000	259304.000
1286.000	261074.000
1287.000	263233.000
1288.000	262273.000
1289.000	265444.000
1290.000	267937.000
1291.000	271490.000
1292.000	273116.000
1293.000	275772.000
1294.000	279675.000
1295.000	283634.000
1296.000	285707.000
1297.000	287461.000
1298.000	291547.000
1299.000	295140.000
1300.000	295302.000
1301.000	299273.000
1302.000	301549.000
1303.000	303180.000
1304.000	302179.000
1305.000	302552.000
1306.000	302053.000
1307.000	300667.000
1308.000	300593.000
1309.000	297713.000
1310.000	296031.000
1311.000	292606.000
1312.000	289672.000
1313.000	287958.000
1314.000	284584.000
1315.000	281506.000
1316.000	278548.000
1317.000	275280.000
1318.000	274356.000
1319.000	270305.000
1320.000	269593.000
1321.000	268171.000
1322.000	266344.000
1323.000	265849.000
1324.000	265707.000
1325.000	265287.000
1326.000	264266.000
1327.000	262720.000
1328.000	263574.000
1329.000	263559.000
1330.000	263499.000
1331.000	262562.000
1332.000	262168.000
1333.000	263839.000
1334.000	263465.000
1335.000	263123.000
1336.000	262290.000
1337.000	263687.000
1338.000	263176.000
1339.000	262997.000
1340.000	263677.000
1341.000	262882.000
1342.000	264593.000
1343.000	264148.000
1344.000	264617.000
1345.000	265504.000
1346.000	265365.000
1347.000	266216.000
1348.000	267618.000
1349.000	268219.000
1350.000	269038.000
1351.000	271010.000
1352.000	273671.000
1353.000	276813.000
1354.000	280398.000
1355.000	285822.000
1356.000	293873.000
1357.000	302010.000
1358.000	313611.000
1359.000	328439.000
1360.000	345210.000
1361.000	366612.000
1362.000	390464.000
1363.000	421418.000
1364.000	455857.000
1365.000	494956.000
1366.000	537906.000
1367.000	586958.000
1368.000	641001.000
1369.000	695644.000
1370.000	756244.000
1371.000	814379.000
1372.000	877061.000
1373.000	933905.000
1374.000	987484.000
1375.000	1037170.000
1376.000	1081858.000
1377.000	1114704.000
1378.000	1138926.000
1379.000	1152830.000
1380.000	1155014.000
1381.000	1145644.000
1382.000	1123988.000
1383.000	1095304.000
1384.000	1054455.000
1385.000	1007116.000
1386.000	951873.000
1387.000	893237.000
1388.000	830425.000
1389.000	766204.000
1390.000	705999.000
1391.000	645605.000
1392.000	589197.000
1393.000	537424.000
1394.000	490510.000
1395.000	450135.000
1396.000	413594.000
1397.000	382227.000
1398.000	356552.000
1399.000	334387.000
1400.000	316234.000
1401.000	302961.000
1402.000	292400.000
1403.000	283753.000
1404.000	276382.000
1405.000	271465.000
1406.000	267711.000
1407.000	265213.000
1408.000	263005.000
1409.000	261752.000
1410.000	261109.000
1411.000	260871.000
1412.000	259872.000
1413.000	260371.000
1414.000	259623.000
1415.000	258874.000
1416.000	258559.000
1417.000	258207.000
1418.000	259487.000
1419.000	257787.000
1420.000	258567.000
1421.000	258954.000
1422.000	259902.000
1423.000	259723.000
1424.000	258300.000
1425.000	258602.000
1426.000	259774.000
1427.000	259241.000
1428.000	260056.000
1429.000	259004.000
1430.000	259383.000
1431.000	260950.000
1432.000	260145.000
1433.000	260634.000
1434.000	261561.000
1435.000	261564.000
1436.000	261961.000
1437.000	263031.000
1438.000	263563.000
1439.000	264066.000
1440.000	265072.000
1441.000	266321.000
1442.000	265998.000
1443.000	268369.000
1444.000	269125.000
1445.000	271255.000
1446.000	273364.000
1447.000	273426.000
1448.000	275455.000
1449.000	277815.000
1450.000	278846.000
1451.000	281063.000
1452.000	282910.000
1453.000	284410.000
1454.000	284303.000
1455.000	285844.000
1456.000	285949.000
1457.000	287653.000
1458.000	287689.000
1459.000	287095.000
1460.000	286318.000
1461.000	286383.000
1462.000	284898.000
1463.000	284684.000
1464.000	282849.000
1465.000	281589.000
1466.000	279435.000
1467.000	277973.000
1468.000	278745.000
1469.000	275584.000
1470.000	274618.000
1471.000	273822.000
1472.000	273113.000
1473.000	271138.000
1474.000	269858.000
1475.000	270338.000
1476.000	270570.000
1477.000	268491.000
1478.000	269106.000
1479.000	268434.000
1480.000	268851.000
1481.000	270684.000
1482.000	269158.000
1483.000	268013.000
1484.000	270026.000
1485.000	269429.000
1486.000	269985.000
1487.000	269761.000
1488.000	270435.000
1489.000	270671.000
1490.000	270260.000
1491.000	270257.000
1492.000	270885.000
1493.000	270599.000
1494.000	271100.000
1495.000	271896.000
1496.000	272671.000
1497.000	273707.000
1498.000	273012.000
1499.000	273434.000
1500.000	273441.000
1501.000	274918.000
1502.000	274887.000
1503.000	275534.000
1504.000	275782.000
1505.000	275938.000
1506.000	276971.000
1507.000	279079.000
1508.000	278996.000
1509.000	281059.000
1510.000	281260.000
1511.000	282921.000
1512.000	284917.000
1513.000	286865.000
1514.000	288391.000
1515.000	291527.000
1516.000	294840.000
1517.000	297553.000
1518.000	302348.000
1519.000	306796.000
1520.000	311973.000
1521.000	317914.000
1522.000	324037.000
1523.000	330030.000
1524.000	339174.000
1525.000	348003.000
1526.000	356682.000
1527.000	367030.000
1528.000	377683.000
1529.000	389193.000
1530.000	402120.000
1531.000	413878.000
1532.000	427113.000
1533.000	441424.000
1534.000	453135.000
1535.000	467120.000
1536.000	479178.000
1537.000	490227.000
1538.000	498774.000
1539.000	508243.000
1540.000	514179.000
1541.000	518743.000
1542.000	521379.000
1543.000	519449.000
1544.000	520604.000
1545.000	516319.000
1546.000	509385.000
1547.000	503424.000
1548.000	494273.000
1549.000	484546.000
1550.000	475019.000
1551.000	464388.000
1552.000	454499.000
1553.000	443885.000
1554.000	434829.000
1555.000	426374.000
1556.000	420834.000
1557.000	414654.000
1558.000	410423.000
1559.000	408394.000
1560.000	407287.000
1561.000	408142.000
1562.000	408690.000
1563.000	411183.000
1564.000	416195.000
1565.000	420809.000
1566.000	426624.000
1567.000	433134.000
1568.000	441235.000
1569.000	447997.000
1570.000	456854.000
1571.000	465965.000
1572.000	475773.000
1573.000	485822.000
1574.000	495267.000
1575.000	507626.000
1576.000	519063.000
1577.000	531115.000
1578.000	543284.000
1579.000	557094.000
1580.000	574070.000
1581.000	587496.000
1582.000	600634.000
1583.000	616867.000
1584.000	635699.000
1585.000	650867.000
1586.000	667048.000
1587.000	685379.000
1588.000	703833.000
1589.000	720895.000
1590.000	739287.000
1591.000	756286.000
1592.000	773571.000
1593.000	791435.000
1594.000	807799.000
1595.000	825645.000
1596.000	838610.000
1597.000	854460.000
1598.000	867078.000
1599.000	881428.000
1600.000	891836.000
1601.000	902782.000
1602.000	911886.000
1603.000	918823.000
1604.000	926840.000
1605.000	931713.000
1606.000	935722.000
1607.000	940407.000
1608.000	941715.000
1609.000	941021.000
1610.000	939299.000
1611.000	937938.000
1612.000	932252.000
1613.000	925975.000
1614.000	918382.000
1615.000	910704.000
1616.000	900838.000
1617.000	890608.000
1618.000	877610.000
1619.000	864284.000
1620.000	850593.000
1621.000	834960.000
1622.000	819334.000
1623.000	802934.000
1624.000	784514.000
1625.000	767853.000
1626.000	752093.000
1627.000	731335.000
1628.000	713590.000
1629.000	694051.000
1630.000	675584.000
1631.000	657328.000
1632.000	636538.000
1633.000	621201.000
1634.000	604118.000
1635.000	585583.000
1636.000	568742.000
1637.000	552000.000
1638.000	536393.000
1639.000	520931.000
1640.000	505732.000
1641.000	490714.000
1642.000	477066.000
1643.000	462692.000
1644.000	449146.000
1645.000	439365.000
1646.000	426853.000
1647.000	416128.000
1648.000	404493.000
1649.000	394848.000
1650.000	386385.000
1651.000	375736.000
1652.000	367698.000
1653.000	360891.000
1654.000	351673.000
1655.000	343768.000
1656.000	336641.000
1657.000	331205.000
1658.000	324322.000
1659.000	318849.000
1660.000	312969.000
1661.000	308771.000
1662.000	303405.000
1663.000	299703.000
1664.000	295791.000
1665.000	292359.000
1666.000	288919.000
1667.000	285793.000
1668.000	283443.000
1669.000	283006.000
1670.000	280374.000
1671.000	279514.000
1672.000	280057.000
1673.000	281030.000
1674.000	284331.000
1675.000	286984.000
1676.000	292726.000
1677.000	298694.000
1678.000	305709.000
1679.000	317199.000
1680.000	328534.000
1681.000	343220.000
1682.000	359240.000
1683.000	378009.000
1684.000	400137.000
1685.000	423630.000
1686.000	449583.000
1687.000	476062.000
1688.000	505827.000
1689.000	535722.000
1690.000	566736.000
1691.000	600214.000
1692.000	632732.000
1693.000	663855.000
1694.000	693006.000
1695.000	719479.000
1696.000	748865.000
1697.000	769793.000
1698.000	789733.000
1699.000	803955.000
1700.000	816510.000
1701.000	820346.000
1702.000	821622.000
1703.000	815648.000
1704.000	806005.000
1705.000	790878.000
1706.000	770068.000
1707.000	746856.000
1708.000	718848.000
1709.000	684443.000
1710.000	652516.000
1711.000	616463.000
1712.000	579543.000
1713.000	542973.000
1714.000	505755.000
1715.000	474961.000
1716.000	441546.000
1717.000	411268.000
1718.000	383621.000
1719.000	358178.000
1720.000	334953.000
1721.000	315192.000
1722.000	299681.000
1723.000	285208.000
1724.000	271928.000
1725.000	261473.000
1726.000	253411.000
1727.000	246760.000
1728.000	239765.000
1729.000	235277.000
1730.000	232122.000
1731.000	228197.000
1732.000	225430.000
1733.000	223600.000
1734.000	222269.000
1735.000	220697.000
1736.000	220135.000
1737.000	219258.000
1738.000	218414.000
1739.000	218530.000
1740.000	217860.000
1741.000	218693.000
1742.000	217884.000
1743.000	218849.000
1744.000	218962.000
1745.000	218783.000
1746.000	220312.000
1747.000	220685.000
1748.000	221674.000
1749.000	221856.000
1750.000	223078.000
1751.000	223679.000
1752.000	224783.000
1753.000	226056.000
1754.000	228284.000
1755.000	228906.000
1756.000	229205.000
1757.000	231766.000
1758.000	232374.000
1759.000	233853.000
1760.000	235851.000
1761.000	238233.000
1762.000	240112.000
1763.000	241513.000
1764.000	243664.000
1765.000	246683.000
1766.000	248936.000
1767.000	250093.000
1768.000	252536.000
1769.000	255405.000
1770.000	257599.000
1771.000	259746.000
1772.000	263882.000
1773.000	265171.000
1774.000	267836.000
1775.000	270358.000
1776.000	272912.000
1777.000	276498.000
1778.000	278192.000
1779.000	279303.000
1780.000	281981.000
1781.000	285101.000
1782.000	285699.000
1783.000	288569.000
1784.000	289738.000
1785.000	292887.000
1786.000	293711.000
1787.000	293768.000
1788.000	296745.000
1789.000	297763.000
1790.000	297189.000
1791.000	297676.000
1792.000	298481.000
1793.000	299054.000
1794.000	298990.000
1795.000	298358.000
1796.000	297336.000
1797.000	296936.000
1798.000	295731.000
1799.000	294716.000
1800.000	293599.000
1801.000	291790.000
1802.000	290290.000
1803.000	287498.000
1804.000	286672.000
1805.000	284419.000
1806.000	281517.000
1807.000	279245.000
1808.000	278311.000
1809.000	274805.000
1810.000	272021.000
1811.000	268318.000
1812.000	265492.000
1813.000	261565.000
1814.000	258716.000
1815.000	254958.000
1816.000	250921.000
1817.000	248349.000
1818.000	244908.000
1819.000	241319.000
1820.000	238247.000
1821.000	233463.000
1822.000	230559.000
1823.000	226456.000
1824.000	223037.000
1825.000	219420.000
1826.000	215750.000
1827.000	212376.000
1828.000	208250.000
1829.000	205299.000
1830.000	201475.000
1831.000	198371.000
1832.000	195355.000
1833.000	192731.000
1834.000	188948.000
1835.000	187483.000
1836.000	183414.000
1837.000	180630.000
1838.000	177438.000
1839.000	175473.000
1840.000	173110.000
1841.000	170957.000
1842.000	167664.000
1843.000	165559.000
1844.000	163192.000
1845.000	161128.000
1846.000	159284.000
1847.000	156997.000
1848.000	155621.000
1849.000	152973.000
1850.000	151282.000
1851.000	149117.000
1852.000	147323.000
1853.000	145264.000
1854.000	143940.000
1855.000	142386.000
1856.000	140014.000
1857.000	138305.000
1858.000	137583.000
1859.000	135855.000
1860.000	134365.000
1861.000	133212.000
1862.000	131296.000
1863.000	130180.000
1864.000	128858.000
1865.000	127398.000
1866.000	126857.000
1867.000	125986.000
1868.000	123522.000
1869.000	123153.000
1870.000	122365.000
1871.000	121410.000
1872.000	120244.000
1873.000	120130.000
1874.000	119329.000
1875.000	118846.000
1876.000	117831.000
1877.000	116692.000
1878.000	116887.000
1879.000	115622.000
1880.000	115573.000
1881.000	114566.000
1882.000	114532.000
1883.000	114249.000
1884.000	113721.000
1885.000	114344.000
1886.000	114625.000
1887.000	114720.000
1888.000	114993.000
1889.000	115869.000
1890.000	116475.000
1891.000	118242.000
1892.000	119534.000
1893.000	122233.000
1894.000	124868.000
1895.000	127980.000
1896.000	129725.000
1897.000	133627.000
1898.000	137976.000
1899.000	142131.000
1900.000	146841.000
1901.000	151127.000
1902.000	156889.000
1903.000	160861.000
1904.000	165830.000
1905.000	171229.000
1906.000	174637.000
1907.000	178151.000
1908.000	181867.000
1909.000	183127.000
1910.000	184397.000
1911.000	185506.000
1912.000	185901.000
1913.000	184203.000
1914.000	181013.000
1915.000	178630.000
1916.000	175727.000
1917.000	170548.000
1918.000	166205.000
1919.000	160592.000
1920.000	155409.000
1921.000	149491.000
1922.000	144762.000
1923.000	139023.000
1924.000	133700.000
1925.000	129478.000
1926.000	124833.000
1927.000	120564.000
1928.000	117013.000
1929.000	113916.000
1930.000	111719.000
1931.000	109684.000
1932.000	107138.000
1933.000	106098.000
1934.000	105616.000
1935.000	105121.000
1936.000	104365.000
1937.000	103697.000
1938.000	103684.000
1939.000	103728.000
1940.000	103441.000
1941.000	103541.000
1942.000	103138.000
1943.000	103379.000
1944.000	103146.000
1945.000	102089.000
1946.000	102087.000
1947.000	101204.000
1948.000	101450.000
1949.000	99336.000
1950.000	97842.000
1951.000	97525.000
1952.000	96064.000
1953.000	95341.000
1954.000	94090.000
1955.000	92220.000
1956.000	91801.000
1957.000	89797.000
1958.000	89186.000
1959.000	87699.000
1960.000	86084.000
1961.000	85200.000
1962.000	84588.000
1963.000	83497.000
1964.000	82603.000
1965.000	82190.000
1966.000	81921.000
1967.000	80859.000
1968.000	80733.000
1969.000	80158.000
1970.000	79804.000
1971.000	79766.000
1972.000	79339.000
1973.000	79221.000
1974.000	78425.000
1975.000	78514.000
1976.000	78177.000
1977.000	77911.000
1978.000	78215.000
1979.000	78133.000
1980.000	77587.000
1981.000	77534.000
1982.000	78039.000
1983.000	77909.000
1984.000	77995.000
1985.000	77588.000
1986.000	77569.000
1987.000	77325.000
1988.000	77696.000
1989.000	77470.000
1990.000	77174.000
1991.000	77034.000
1992.000	77155.000
1993.000	77041.000
1994.000	77368.000
1995.000	76669.000
1996.000	76983.000
1997.000	76456.000
1998.000	76581.000
1999.000	76234.000
2000.000	75761.000
2001.000	75967.000
2002.000	76198.000
2003.000	76042.000
2004.000	75842.000
2005.000	75564.000
2006.000	75496.000
2007.000	75407.000
2008.000	75345.000
2009.000	76096.000
2010.000	74943.000
2011.000	74466.000
2012.000	74534.000
2013.000	75041.000
2014.000	75133.000
2015.000	74213.000
2016.000	74374.000
2017.000	73930.000
2018.000	74440.000
2019.000	74678.000
2020.000	73966.000
2021.000	73465.000
2022.000	73504.000
2023.000	73498.000
2024.000	73591.000
2025.000	73185.000
2026.000	72873.000
2027.000	72603.000
2028.000	72979.000
2029.000	72515.000
2030.000	72475.000
2031.000	72837.000
2032.000	72814.000
2033.000	72038.000
2034.000	72492.000
2035.000	71936.000
2036.000	71713.000
2037.000	72066.000
2038.000	71187.000
2039.000	71458.000
2040.000	72102.000
2041.000	71520.000
2042.000	71210.000
2043.000	71042.000
2044.000	71119.000
2045.000	71063.000
2046.000	71266.000
2047.000	71096.000
2048.000	0.000
